Sample Index, EXG Channel 0, EXG Channel 1, EXG Channel 2, EXG Channel 3, EXG Channel 4, EXG Channel 5, EXG Channel 6, EXG Channel 7, Accel Channel 0, Accel Channel 1, Accel Channel 2, Other, Other, Other, Other, Other, Other, Other, Analog Channel 0, Analog Channel 1, Analog Channel 2, Timestamp, Timestamp (Formatted)
0.0, 0.0, 0.0, 0.0, 0.0, 0.0, 0.0, 0.0, 0.0, 0.0, 0.0, 0.0, 192.0, 0.0, 0.0, 0.0, 0.0, 0.0, 0.0, 0.0, 0.0, 0.0, 1.598474815117344E9, 2020-08-26 15:46:55.117
1.0, -3.911555051803589, -65366.64453125, -41289.55078125, -48025.3359375, 38577.0078125, 9797.8642578125, -161966.796875, 187500.0, 0.010000000707805157, -0.020000001415610313, 1.0120000839233398, 192.0, 0.0, 80.0, 255.0, 96.0, 31.0, 160.0, 0.0, 0.0, 0.0, 1.598474815184299E9, 2020-08-26 15:46:55.184
2.0, 36.38863754272461, -45750.01953125, -20706.185546875, -28565.73046875, 60114.87890625, 29785.552734375, -139691.3125, 187500.0, 0.010000000707805157, -0.020000001415610313, 1.0120000839233398, 192.0, 0.0, 0.0, 0.0, 0.0, 0.0, 0.0, 0.0, 0.0, 0.0, 1.598474815184304E9, 2020-08-26 15:46:55.184
3.0, 83.17083740234375, -30037.2109375, -2827.89794921875, -12243.3017578125, 79406.203125, 47484.73828125, -120067.3515625, 187500.0, 0.010000000707805157, -0.020000001415610313, 1.0120000839233398, 192.0, 0.0, 0.0, 0.0, 0.0, 0.0, 0.0, 0.0, 0.0, 0.0, 1.598474815184306E9, 2020-08-26 15:46:55.184
4.0, 38.3555908203125, -19234.009765625, 10544.748046875, -475.06396484375, 94478.984375, 61147.0390625, -105074.359375, 187500.0, 0.010000000707805157, -0.020000001415610313, 1.0120000839233398, 192.0, 0.0, 0.0, 0.0, 0.0, 0.0, 0.0, 0.0, 0.0, 0.0, 1.598474815184309E9, 2020-08-26 15:46:55.184
5.0, -102.21452331542969, -22311.755859375, 8483.8056640625, -2878.032958984375, 93554.34375, 60205.60546875, -107131.3046875, 187500.0, 0.010000000707805157, -0.020000001415610313, 1.0120000839233398, 192.0, 0.0, 0.0, 0.0, 0.0, 0.0, 0.0, 0.0, 0.0, 0.0, 1.598474815184311E9, 2020-08-26 15:46:55.184
6.0, -112.71984100341797, -38307.58203125, -7879.0791015625, -18330.708984375, 76123.8046875, 44221.78515625, -125314.203125, 187500.0, 0.010000000707805157, -0.020000001415610313, 1.0120000839233398, 192.0, 0.0, 0.0, 0.0, 0.0, 0.0, 0.0, 0.0, 0.0, 0.0, 1.598474815184314E9, 2020-08-26 15:46:55.184
7.0, -61.93667984008789, -55131.515625, -26237.4375, -35330.640625, 56171.140625, 25903.458984375, -145654.640625, 187500.0, 0.010000000707805157, -0.020000001415610313, 1.0120000839233398, 192.0, 0.0, 0.0, 0.0, 0.0, 0.0, 0.0, 0.0, 0.0, 0.0, 1.598474815184316E9, 2020-08-26 15:46:55.184
8.0, -35.561622619628906, -70003.4453125, -43553.8046875, -51024.13671875, 37045.9140625, 8303.3818359375, -164665.40625, 187500.0, 0.012000000104308128, -0.018000001087784767, 1.0080000162124634, 192.0, 0.0, 96.0, 255.0, 112.0, 31.0, 128.0, 0.0, 0.0, 0.0, 1.598474815184318E9, 2020-08-26 15:46:55.184
9.0, 0.8046627640724182, -64879.578125, -39598.70703125, -46677.52734375, 40026.0703125, 11140.8916015625, -160408.734375, 187500.0, 0.012000000104308128, -0.018000001087784767, 1.0080000162124634, 192.0, 0.0, 0.0, 0.0, 0.0, 0.0, 0.0, 0.0, 0.0, 0.0, 1.598474815184321E9, 2020-08-26 15:46:55.184
10.0, 22.329391479492188, -44964.48828125, -18804.09765625, -27016.015625, 61793.296875, 31354.19921875, -137922.65625, 187500.0, 0.012000000104308128, -0.018000001087784767, 1.0080000162124634, 192.0, 0.0, 0.0, 0.0, 0.0, 0.0, 0.0, 0.0, 0.0, 0.0, 1.598474815184323E9, 2020-08-26 15:46:55.184
11.0, 66.47408294677734, -28361.6796875, -28.27495574951172, -9844.3564453125, 82005.375, 49945.28515625, -117405.375, 187500.0, 0.012000000104308128, -0.018000001087784767, 1.0080000162124634, 192.0, 0.0, 0.0, 0.0, 0.0, 0.0, 0.0, 0.0, 0.0, 0.0, 1.598474815184326E9, 2020-08-26 15:46:55.184
12.0, 59.83561706542969, -17820.75390625, 13107.173828125, 1651.6597900390625, 96875.0078125, 63397.48046875, -102642.109375, 187500.0, 0.012000000104308128, -0.018000001087784767, 1.0080000162124634, 192.0, 0.0, 0.0, 0.0, 0.0, 0.0, 0.0, 0.0, 0.0, 0.0, 1.598474815184329E9, 2020-08-26 15:46:55.184
13.0, -94.0784912109375, -22096.798828125, 9769.1875, -2004.3255615234375, 94700.15625, 61234.63671875, -105965.6640625, 187500.0, 0.012000000104308128, -0.018000001087784767, 1.0080000162124634, 192.0, 0.0, 0.0, 0.0, 0.0, 0.0, 0.0, 0.0, 0.0, 0.0, 1.598474815184331E9, 2020-08-26 15:46:55.184
14.0, -123.13575744628906, -38025.58984375, -6606.19189453125, -17455.818359375, 77278.2265625, 45263.109375, -124157.3203125, 187500.0, 0.012000000104308128, -0.018000001087784767, 1.0080000162124634, 192.0, 0.0, 0.0, 0.0, 0.0, 0.0, 0.0, 0.0, 0.0, 0.0, 1.598474815184334E9, 2020-08-26 15:46:55.184
15.0, -79.30398559570312, -53976.375, -24091.580078125, -33606.203125, 58220.0546875, 27815.984375, -143628.125, 187500.0, 0.012000000104308128, -0.018000001087784767, 1.0080000162124634, 192.0, 0.0, 0.0, 0.0, 0.0, 0.0, 0.0, 0.0, 0.0, 0.0, 1.598474815184336E9, 2020-08-26 15:46:55.184
16.0, -20.898880004882812, -68713.7734375, -41230.96484375, -49157.23046875, 39299.9296875, 10400.6240234375, -162463.78125, 187500.0, 0.012000000104308128, -0.018000001087784767, 1.0080000162124634, 192.0, 0.0, 0.0, 0.0, 0.0, 0.0, 0.0, 0.0, 0.0, 0.0, 1.598474815244484E9, 2020-08-26 15:46:55.244
17.0, 13.388694763183594, -64891.60546875, -38647.39453125, -46157.3125, 40936.01171875, 11919.9169921875, -159567.21875, 187500.0, 0.012000000104308128, -0.018000001087784767, 1.0080000162124634, 192.0, 0.0, 0.0, 0.0, 0.0, 0.0, 0.0, 0.0, 0.0, 0.0, 1.59847481524449E9, 2020-08-26 15:46:55.244
18.0, 15.087427139282227, -45078.68359375, -18036.5390625, -26657.830078125, 62534.79296875, 31973.587890625, -137259.359375, 187500.0, 0.010000000707805157, -0.012000000104308128, 1.002000093460083, 192.0, 0.0, 80.0, 255.0, 160.0, 31.0, 80.0, 0.0, 0.0, 0.0, 1.598474815244493E9, 2020-08-26 15:46:55.244
19.0, 49.24089050292969, -27636.568359375, 1567.9525146484375, -8670.173828125, 83588.7734375, 51388.515625, -115919.3203125, 187500.0, 0.010000000707805157, -0.012000000104308128, 1.002000093460083, 192.0, 0.0, 0.0, 0.0, 0.0, 0.0, 0.0, 0.0, 0.0, 0.0, 1.598474815244495E9, 2020-08-26 15:46:55.244
20.0, 65.78118133544922, -16635.93359375, 15203.767578125, 3292.724853515625, 98977.7890625, 65338.52734375, -100663.625, 187500.0, 0.010000000707805157, -0.012000000104308128, 1.002000093460083, 192.0, 0.0, 0.0, 0.0, 0.0, 0.0, 0.0, 0.0, 0.0, 0.0, 1.598474815244498E9, 2020-08-26 15:46:55.244
21.0, -77.31468200683594, -22179.27734375, 10540.5234375, -1660.131103515625, 95495.0078125, 61898.03515625, -105300.4921875, 187500.0, 0.010000000707805157, -0.012000000104308128, 1.002000093460083, 192.0, 0.0, 0.0, 0.0, 0.0, 0.0, 0.0, 0.0, 0.0, 0.0, 1.5984748152445E9, 2020-08-26 15:46:55.244
22.0, -126.35440826416016, -38388.203125, -6208.64404296875, -17446.7421875, 77703.6015625, 45577.9765625, -123861.984375, 187500.0, 0.010000000707805157, -0.012000000104308128, 1.002000093460083, 192.0, 0.0, 0.0, 0.0, 0.0, 0.0, 0.0, 0.0, 0.0, 0.0, 1.598474815244502E9, 2020-08-26 15:46:55.244
23.0, -96.71599578857422, -53572.59375, -22956.068359375, -32859.296875, 59391.5546875, 28863.74609375, -142598.40625, 187500.0, 0.010000000707805157, -0.012000000104308128, 1.002000093460083, 192.0, 0.0, 0.0, 0.0, 0.0, 0.0, 0.0, 0.0, 0.0, 0.0, 1.598474815244505E9, 2020-08-26 15:46:55.244
24.0, -23.335220336914062, -67611.09375, -39352.7265625, -47693.59375, 41232.328125, 12184.8515625, -160693.953125, 187500.0, 0.010000000707805157, -0.012000000104308128, 1.002000093460083, 192.0, 0.0, 0.0, 0.0, 0.0, 0.0, 0.0, 0.0, 0.0, 0.0, 1.598474815244507E9, 2020-08-26 15:46:55.244
25.0, 33.840538024902344, -64933.3125, -37937.50390625, -45838.59765625, 41712.1328125, 12578.9130859375, -158958.921875, 187500.0, 0.010000000707805157, -0.012000000104308128, 1.002000093460083, 192.0, 0.0, 0.0, 0.0, 0.0, 0.0, 0.0, 0.0, 0.0, 0.0, 1.598474815244509E9, 2020-08-26 15:46:55.244
26.0, 16.003849029541016, -45613.73828125, -17917.470703125, -26883.693359375, 62723.484375, 32069.521484375, -137237.140625, 187500.0, 0.010000000707805157, -0.012000000104308128, 1.002000093460083, 192.0, 0.0, 0.0, 0.0, 0.0, 0.0, 0.0, 0.0, 0.0, 0.0, 1.598474815244512E9, 2020-08-26 15:46:55.244
27.0, 31.672420501708984, -27526.10546875, 2279.6767578125, -8286.439453125, 84378.0546875, 52074.66796875, -115304.734375, 187500.0, 0.010000000707805157, -0.012000000104308128, 1.002000093460083, 192.0, 0.0, 0.0, 0.0, 0.0, 0.0, 0.0, 0.0, 0.0, 0.0, 1.598474815244514E9, 2020-08-26 15:46:55.244
28.0, 56.77342987060547, -15646.1083984375, 16831.533203125, 4570.99853515625, 100694.6953125, 66926.640625, -99137.71875, 187500.0, 0.014000000432133675, -0.014000000432133675, 1.0080000162124634, 192.0, 0.0, 112.0, 255.0, 144.0, 31.0, 128.0, 0.0, 0.0, 0.0, 1.598474815244516E9, 2020-08-26 15:46:55.244
29.0, -53.77829360961914, -22057.68359375, 11300.080078125, -1244.88037109375, 96356.53125, 62645.96875, -104641.1875, 187500.0, 0.014000000432133675, -0.014000000432133675, 1.0080000162124634, 192.0, 0.0, 0.0, 0.0, 0.0, 0.0, 0.0, 0.0, 0.0, 0.0, 1.598474815244519E9, 2020-08-26 15:46:55.244
30.0, -123.02399444580078, -38963.40234375, -6226.36865234375, -17771.24609375, 77791.0625, 45575.00390625, -123976.0703125, 187500.0, 0.014000000432133675, -0.014000000432133675, 1.0080000162124634, 192.0, 0.0, 0.0, 0.0, 0.0, 0.0, 0.0, 0.0, 0.0, 0.0, 1.598474815244521E9, 2020-08-26 15:46:55.244
31.0, -112.29515838623047, -53687.19140625, -22561.15625, -32755.720703125, 59893.328125, 29268.244140625, -142302.171875, 187500.0, 0.014000000432133675, -0.014000000432133675, 1.0080000162124634, 192.0, 0.0, 0.0, 0.0, 0.0, 0.0, 0.0, 0.0, 0.0, 0.0, 1.598474815303914E9, 2020-08-26 15:46:55.303
32.0, -37.193302154541016, -66791.796875, -37990.5, -46646.8359375, 42705.93359375, 13538.0712890625, -159438.71875, 187500.0, 0.014000000432133675, -0.014000000432133675, 1.0080000162124634, 192.0, 0.0, 0.0, 0.0, 0.0, 0.0, 0.0, 0.0, 0.0, 0.0, 1.598474815303922E9, 2020-08-26 15:46:55.303
33.0, 58.36040115356445, -64625.6875, -37064.3984375, -45286.578125, 42705.7109375, 13458.7890625, -158192.59375, 187500.0, 0.014000000432133675, -0.014000000432133675, 1.0080000162124634, 192.0, 0.0, 0.0, 0.0, 0.0, 0.0, 0.0, 0.0, 0.0, 0.0, 1.598474815303924E9, 2020-08-26 15:46:55.303
34.0, 21.189453125, -46221.19140625, -18032.671875, -27279.990234375, 62726.3671875, 31991.759765625, -137454.640625, 187500.0, 0.014000000432133675, -0.014000000432133675, 1.0080000162124634, 192.0, 0.0, 0.0, 0.0, 0.0, 0.0, 0.0, 0.0, 0.0, 0.0, 1.598474815303926E9, 2020-08-26 15:46:55.303
35.0, 18.95427894592285, -27831.51953125, 2410.88134765625, -8415.87890625, 84621.421875, 52243.15625, -115277.1953125, 187500.0, 0.014000000432133675, -0.014000000432133675, 1.0080000162124634, 192.0, 0.0, 0.0, 0.0, 0.0, 0.0, 0.0, 0.0, 0.0, 0.0, 1.598474815303928E9, 2020-08-26 15:46:55.303
36.0, 39.80845642089844, -15012.392578125, 17920.533203125, 5379.5283203125, 101898.671875, 68034.4609375, -98154.9765625, 187500.0, 0.014000000432133675, -0.014000000432133675, 1.0080000162124634, 192.0, 0.0, 0.0, 0.0, 0.0, 0.0, 0.0, 0.0, 0.0, 0.0, 1.59847481530393E9, 2020-08-26 15:46:55.303
37.0, -33.19234085083008, -21549.181640625, 12297.326171875, -536.9559326171875, 97481.3203125, 63671.46875, -103741.859375, 187500.0, 0.014000000432133675, -0.014000000432133675, 1.0080000162124634, 192.0, 0.0, 0.0, 0.0, 0.0, 0.0, 0.0, 0.0, 0.0, 0.0, 1.598474815303932E9, 2020-08-26 15:46:55.303
38.0, -114.53033447265625, -39574.76953125, -6419.95703125, -18208.669921875, 77730.8515625, 45446.59375, -124253.8828125, 187500.0, 0.010000000707805157, -0.014000000432133675, 1.002000093460083, 192.0, 0.0, 80.0, 255.0, 144.0, 31.0, 80.0, 0.0, 0.0, 0.0, 1.598474815303934E9, 2020-08-26 15:46:55.303
39.0, -121.99581909179688, -54174.50390625, -22696.005859375, -33103.109375, 59885.8203125, 29204.408203125, -142518.421875, 187500.0, 0.010000000707805157, -0.014000000432133675, 1.002000093460083, 192.0, 0.0, 0.0, 0.0, 0.0, 0.0, 0.0, 0.0, 0.0, 0.0, 1.598474815303936E9, 2020-08-26 15:46:55.303
40.0, -54.33708953857422, -66341.921875, -37173.96875, -46054.359375, 43646.94140625, 14404.24609375, -158709.671875, 187500.0, 0.010000000707805157, -0.014000000432133675, 1.002000093460083, 192.0, 0.0, 0.0, 0.0, 0.0, 0.0, 0.0, 0.0, 0.0, 0.0, 1.598474815303938E9, 2020-08-26 15:46:55.303
41.0, 71.88320922851562, -63948.2734375, -35963.21875, -44433.5234375, 43938.296875, 14599.2646484375, -157182.53125, 187500.0, 0.010000000707805157, -0.014000000432133675, 1.002000093460083, 192.0, 0.0, 0.0, 0.0, 0.0, 0.0, 0.0, 0.0, 0.0, 0.0, 1.598474815303941E9, 2020-08-26 15:46:55.303
42.0, 33.66172409057617, -46776.43359375, -18218.50390625, -27678.990234375, 62679.23046875, 31877.6328125, -137721.046875, 187500.0, 0.010000000707805157, -0.014000000432133675, 1.002000093460083, 192.0, 0.0, 0.0, 0.0, 0.0, 0.0, 0.0, 0.0, 0.0, 0.0, 1.598474815303943E9, 2020-08-26 15:46:55.303
43.0, 12.315811157226562, -28438.927734375, 2097.66650390625, -8909.2490234375, 84447.1875, 52008.796875, -115664.59375, 187500.0, 0.010000000707805157, -0.014000000432133675, 1.002000093460083, 192.0, 0.0, 0.0, 0.0, 0.0, 0.0, 0.0, 0.0, 0.0, 0.0, 1.598474815303946E9, 2020-08-26 15:46:55.303
44.0, 23.17875862121582, -14730.044921875, 18491.1953125, 5770.43798828125, 102610.84375, 68668.265625, -97656.421875, 187500.0, 0.010000000707805157, -0.014000000432133675, 1.002000093460083, 192.0, 0.0, 0.0, 0.0, 0.0, 0.0, 0.0, 0.0, 0.0, 0.0, 1.598474815303948E9, 2020-08-26 15:46:55.303
45.0, -27.202072143554688, -20742.306640625, 13450.8095703125, 412.05438232421875, 98780.734375, 64870.9296875, -102666.875, 187500.0, 0.010000000707805157, -0.014000000432133675, 1.002000093460083, 192.0, 0.0, 0.0, 0.0, 0.0, 0.0, 0.0, 0.0, 0.0, 0.0, 1.598474815303951E9, 2020-08-26 15:46:55.303
46.0, -97.31948852539062, -39990.82421875, -6516.5166015625, -18484.646484375, 77779.796875, 45424.3984375, -124426.8828125, 187500.0, 0.010000000707805157, -0.014000000432133675, 1.002000093460083, 192.0, 0.0, 0.0, 0.0, 0.0, 0.0, 0.0, 0.0, 0.0, 0.0, 1.598474815363655E9, 2020-08-26 15:46:55.363
47.0, -124.67802429199219, -54841.2109375, -23116.486328125, -33668.85546875, 59606.24609375, 28868.3046875, -143013.9375, 187500.0, 0.010000000707805157, -0.014000000432133675, 1.002000093460083, 192.0, 0.0, 0.0, 0.0, 0.0, 0.0, 0.0, 0.0, 0.0, 0.0, 1.598474815363661E9, 2020-08-26 15:46:55.363
48.0, -71.50322723388672, -66233.890625, -36835.98828125, -45862.1328125, 44127.125, 14810.3544921875, -158450.8125, 187500.0, 0.010000000707805157, -0.010000000707805157, 1.0099999904632568, 192.0, 0.0, 80.0, 255.0, 176.0, 31.0, 144.0, 0.0, 0.0, 0.0, 1.598474815363664E9, 2020-08-26 15:46:55.363
49.0, 69.46922302246094, -63104.828125, -34835.73046875, -43481.203125, 45214.11328125, 15776.419921875, -156138.078125, 187500.0, 0.010000000707805157, -0.010000000707805157, 1.0099999904632568, 192.0, 0.0, 0.0, 0.0, 0.0, 0.0, 0.0, 0.0, 0.0, 0.0, 1.598474815363666E9, 2020-08-26 15:46:55.363
50.0, 55.052345275878906, -47018.390625, -18184.060546875, -27803.87109375, 62861.55078125, 31988.98828125, -137767.4375, 187500.0, 0.010000000707805157, -0.010000000707805157, 1.0099999904632568, 192.0, 0.0, 0.0, 0.0, 0.0, 0.0, 0.0, 0.0, 0.0, 0.0, 1.598474815363668E9, 2020-08-26 15:46:55.363
51.0, 13.433398246765137, -29156.75390625, 1583.8892822265625, -9544.306640625, 84073.671875, 51588.11328125, -116258.4140625, 187500.0, 0.010000000707805157, -0.010000000707805157, 1.0099999904632568, 192.0, 0.0, 0.0, 0.0, 0.0, 0.0, 0.0, 0.0, 0.0, 0.0, 1.598474815363671E9, 2020-08-26 15:46:55.363
52.0, 6.459653854370117, -14802.8447265625, 18601.03125, 5763.9111328125, 102853.9375, 68853.2734375, -97635.390625, 187500.0, 0.010000000707805157, -0.010000000707805157, 1.0099999904632568, 192.0, 0.0, 0.0, 0.0, 0.0, 0.0, 0.0, 0.0, 0.0, 0.0, 1.598474815363673E9, 2020-08-26 15:46:55.363
53.0, -36.90272903442383, -19941.041015625, 14490.3447265625, 1301.787841796875, 99957.78125, 65962.390625, -101724.0390625, 187500.0, 0.010000000707805157, -0.010000000707805157, 1.0099999904632568, 192.0, 0.0, 0.0, 0.0, 0.0, 0.0, 0.0, 0.0, 0.0, 0.0, 1.598474815363675E9, 2020-08-26 15:46:55.363
54.0, -73.87251281738281, -40016.484375, -6292.12744140625, -18408.806640625, 78150.5234375, 45724.046875, -124292.5, 187500.0, 0.010000000707805157, -0.010000000707805157, 1.0099999904632568, 192.0, 0.0, 0.0, 0.0, 0.0, 0.0, 0.0, 0.0, 0.0, 0.0, 1.598474815363677E9, 2020-08-26 15:46:55.363
55.0, -121.39231872558594, -55566.12109375, -23665.2890625, -34328.27734375, 59202.23828125, 28417.3359375, -143644.015625, 187500.0, 0.010000000707805157, -0.010000000707805157, 1.0099999904632568, 192.0, 0.0, 0.0, 0.0, 0.0, 0.0, 0.0, 0.0, 0.0, 0.0, 1.59847481536368E9, 2020-08-26 15:46:55.363
56.0, -86.94828033447266, -66475.921875, -36941.6640625, -46064.12890625, 44162.0390625, 14795.982421875, -158635.3125, 187500.0, 0.010000000707805157, -0.010000000707805157, 1.0099999904632568, 192.0, 0.0, 0.0, 0.0, 0.0, 0.0, 0.0, 0.0, 0.0, 0.0, 1.598474815363682E9, 2020-08-26 15:46:55.363
57.0, 55.18645477294922, -62394.7578125, -33943.06640625, -42709.66796875, 46251.0546875, 16740.763671875, -155327.90625, 187500.0, 0.010000000707805157, -0.010000000707805157, 1.0099999904632568, 192.0, 0.0, 0.0, 0.0, 0.0, 0.0, 0.0, 0.0, 0.0, 0.0, 1.598474815363685E9, 2020-08-26 15:46:55.363
58.0, 79.01341247558594, -46796.19140625, -17733.716796875, -27486.87890625, 63457.29296875, 32518.099609375, -137397.828125, 187500.0, 0.010000000707805157, -0.010000000707805157, 1.0099999904632568, 192.0, 0.0, 0.0, 0.0, 0.0, 0.0, 0.0, 0.0, 0.0, 0.0, 1.598474815363687E9, 2020-08-26 15:46:55.363
59.0, 19.066038131713867, -29867.40625, 1044.139404296875, -10185.9580078125, 83669.2578125, 51147.31640625, -116875.5234375, 187500.0, 0.010000000707805157, -0.012000000104308128, 1.0240000486373901, 192.0, 0.0, 80.0, 255.0, 160.0, 32.0, 0.0, 0.0, 0.0, 0.0, 1.59847481536369E9, 2020-08-26 15:46:55.363
60.0, -6.727874755859375, -15208.3056640625, 18318.439453125, 5395.7333984375, 102697.34375, 68665.453125, -97995.2734375, 187500.0, 0.010000000707805157, -0.012000000104308128, 1.0240000486373901, 192.0, 0.0, 0.0, 0.0, 0.0, 0.0, 0.0, 0.0, 0.0, 0.0, 1.598474815363692E9, 2020-08-26 15:46:55.363
61.0, -53.30891036987305, -19368.8359375, 15217.5810546875, 1924.4627685546875, 100807.4375, 66758.3125, -101079.7734375, 187500.0, 0.010000000707805157, -0.012000000104308128, 1.0240000486373901, 192.0, 0.0, 0.0, 0.0, 0.0, 0.0, 0.0, 0.0, 0.0, 0.0, 1.598474815423994E9, 2020-08-26 15:46:55.423
62.0, -53.21950149536133, -39543.65625, -5610.6455078125, -17848.626953125, 78956.59375, 46471.01953125, -123695.7578125, 187500.0, 0.010000000707805157, -0.012000000104308128, 1.0240000486373901, 192.0, 0.0, 0.0, 0.0, 0.0, 0.0, 0.0, 0.0, 0.0, 0.0, 1.598474815424007E9, 2020-08-26 15:46:55.424
63.0, -112.25045776367188, -56222.390625, -24162.32421875, -34913.73828125, 58824.4921875, 28014.513671875, -144222.140625, 187500.0, 0.010000000707805157, -0.012000000104308128, 1.0240000486373901, 192.0, 0.0, 0.0, 0.0, 0.0, 0.0, 0.0, 0.0, 0.0, 0.0, 1.598474815424012E9, 2020-08-26 15:46:55.424
64.0, -96.55953216552734, -67011.53125, -37370.52734375, -46561.1171875, 43844.80078125, 14462.2265625, -159147.171875, 187500.0, 0.010000000707805157, -0.012000000104308128, 1.0240000486373901, 192.0, 0.0, 0.0, 0.0, 0.0, 0.0, 0.0, 0.0, 0.0, 0.0, 1.598474815424016E9, 2020-08-26 15:46:55.424
65.0, 38.3555908203125, -61986.8828125, -33408.859375, -42259.19140625, 46896.03515625, 17347.099609375, -154881.46875, 187500.0, 0.010000000707805157, -0.012000000104308128, 1.0240000486373901, 192.0, 0.0, 0.0, 0.0, 0.0, 0.0, 0.0, 0.0, 0.0, 0.0, 1.598474815424018E9, 2020-08-26 15:46:55.424
66.0, 92.29035186767578, -46136.234375, -16885.6015625, -26747.794921875, 64423.37890625, 33430.921875, -136641.953125, 187500.0, 0.010000000707805157, -0.012000000104308128, 1.0240000486373901, 192.0, 0.0, 0.0, 0.0, 0.0, 0.0, 0.0, 0.0, 0.0, 0.0, 1.598474815424021E9, 2020-08-26 15:46:55.424
67.0, 31.962993621826172, -30438.3359375, 618.6068725585938, -10689.4306640625, 83365.234375, 50825.98828125, -117385.59375, 187500.0, 0.010000000707805157, -0.012000000104308128, 1.0240000486373901, 192.0, 0.0, 0.0, 0.0, 0.0, 0.0, 0.0, 0.0, 0.0, 0.0, 1.598474815424023E9, 2020-08-26 15:46:55.424
68.0, -13.388694763183594, -15846.3583984375, 17766.708984375, 4792.1689453125, 102264.4375, 68222.640625, -98631.46875, 187500.0, 0.010000000707805157, -0.012000000104308128, 1.0240000486373901, 192.0, 0.0, 0.0, 0.0, 0.0, 0.0, 0.0, 0.0, 0.0, 0.0, 1.598474815424025E9, 2020-08-26 15:46:55.424
69.0, -70.49739837646484, -19128.421875, 15552.611328125, 2193.577880859375, 101260.1015625, 67176.3125, -100832.78125, 187500.0, 0.006000000052154064, -0.018000001087784767, 1.0140000581741333, 192.0, 0.0, 48.0, 255.0, 112.0, 31.0, 176.0, 0.0, 0.0, 0.0, 1.598474815424028E9, 2020-08-26 15:46:55.424
70.0, -48.525634765625, -38766.328125, -4675.20263671875, -17013.56640625, 80015.78125, 47471.68359375, -122851.0625, 187500.0, 0.006000000052154064, -0.018000001087784767, 1.0140000581741333, 192.0, 0.0, 0.0, 0.0, 0.0, 0.0, 0.0, 0.0, 0.0, 0.0, 1.59847481542403E9, 2020-08-26 15:46:55.424
71.0, -95.15137481689453, -56661.3125, -24465.078125, -35292.7109375, 58648.6953125, 27806.75390625, -144606.453125, 187500.0, 0.006000000052154064, -0.018000001087784767, 1.0140000581741333, 192.0, 0.0, 0.0, 0.0, 0.0, 0.0, 0.0, 0.0, 0.0, 0.0, 1.598474815424033E9, 2020-08-26 15:46:55.424
72.0, -99.30879974365234, -67723.8125, -38012.42578125, -47241.57421875, 43324.875, 13924.1083984375, -159864.25, 187500.0, 0.006000000052154064, -0.018000001087784767, 1.0140000581741333, 192.0, 0.0, 0.0, 0.0, 0.0, 0.0, 0.0, 0.0, 0.0, 0.0, 1.598474815424036E9, 2020-08-26 15:46:55.424
73.0, 21.100046157836914, -61921.59375, -33277.76953125, -42170.0078125, 47144.9453125, 17561.966796875, -154829.328125, 187500.0, 0.006000000052154064, -0.018000001087784767, 1.0140000581741333, 192.0, 0.0, 0.0, 0.0, 0.0, 0.0, 0.0, 0.0, 0.0, 0.0, 1.598474815424039E9, 2020-08-26 15:46:55.424
74.0, 89.58578491210938, -45325.55859375, -15942.828125, -25882.9609375, 65487.48046875, 34433.33203125, -135785.140625, 187500.0, 0.006000000052154064, -0.018000001087784767, 1.0140000581741333, 192.0, 0.0, 0.0, 0.0, 0.0, 0.0, 0.0, 0.0, 0.0, 0.0, 1.598474815424041E9, 2020-08-26 15:46:55.424
75.0, 53.66653823852539, -30697.03515625, 491.93951416015625, -10880.6943359375, 83360.78125, 50779.3828125, -117592.2109375, 187500.0, 0.006000000052154064, -0.018000001087784767, 1.0140000581741333, 192.0, 0.0, 0.0, 0.0, 0.0, 0.0, 0.0, 0.0, 0.0, 0.0, 1.598474815424044E9, 2020-08-26 15:46:55.424
76.0, -13.120473861694336, -16535.349609375, 17139.451171875, 4135.87744140625, 101753.2734375, 67688.1640625, -99338.8828125, 187500.0, 0.006000000052154064, -0.018000001087784767, 1.0140000581741333, 192.0, 0.0, 0.0, 0.0, 0.0, 0.0, 0.0, 0.0, 0.0, 0.0, 1.598474815484401E9, 2020-08-26 15:46:55.484
77.0, -87.52942657470703, -19060.830078125, 15672.8857421875, 2282.35888671875, 101489.859375, 67369.7421875, -100810.09375, 187500.0, 0.006000000052154064, -0.018000001087784767, 1.0140000581741333, 192.0, 0.0, 0.0, 0.0, 0.0, 0.0, 0.0, 0.0, 0.0, 0.0, 1.598474815484415E9, 2020-08-26 15:46:55.484
78.0, -56.90753936767578, -37923.30859375, -3704.980224609375, -16109.1474609375, 81096.171875, 48494.4765625, -121972.8828125, 187500.0, 0.006000000052154064, -0.018000001087784767, 1.0140000581741333, 192.0, 0.0, 0.0, 0.0, 0.0, 0.0, 0.0, 0.0, 0.0, 0.0, 1.598474815484417E9, 2020-08-26 15:46:55.484
79.0, -71.10089874267578, -56658.09375, -24309.197265625, -35206.87890625, 58920.15625, 28039.16796875, -144538.421875, 187500.0, 0.010000000707805157, -0.01600000075995922, 1.0099999904632568, 192.0, 0.0, 80.0, 255.0, 128.0, 31.0, 144.0, 0.0, 0.0, 0.0, 1.59847481548442E9, 2020-08-26 15:46:55.484
80.0, -95.71016693115234, -68437.4609375, -38634.51953125, -47901.6640625, 42814.8984375, 13401.345703125, -160571.5, 187500.0, 0.010000000707805157, -0.01600000075995922, 1.0099999904632568, 192.0, 0.0, 0.0, 0.0, 0.0, 0.0, 0.0, 0.0, 0.0, 0.0, 1.598474815484422E9, 2020-08-26 15:46:55.484
81.0, 6.0573225021362305, -62168.9375, -33463.01953125, -42385.5234375, 47062.78125, 17460.154296875, -155105.5, 187500.0, 0.010000000707805157, -0.01600000075995922, 1.0099999904632568, 192.0, 0.0, 0.0, 0.0, 0.0, 0.0, 0.0, 0.0, 0.0, 0.0, 1.598474815484425E9, 2020-08-26 15:46:55.484
82.0, 75.41477966308594, -44606.28125, -15116.0146484375, -25114.888671875, 66418.609375, 35316.08984375, -135055.296875, 187500.0, 0.010000000707805157, -0.01600000075995922, 1.0099999904632568, 192.0, 0.0, 0.0, 0.0, 0.0, 0.0, 0.0, 0.0, 0.0, 0.0, 1.598474815484427E9, 2020-08-26 15:46:55.484
83.0, 77.44879150390625, -30441.376953125, 894.4273681640625, -10544.2119140625, 83877.734375, 51248.92578125, -117286.1015625, 187500.0, 0.010000000707805157, -0.01600000075995922, 1.0099999904632568, 192.0, 0.0, 0.0, 0.0, 0.0, 0.0, 0.0, 0.0, 0.0, 0.0, 1.59847481548443E9, 2020-08-26 15:46:55.484
84.0, -8.49366283416748, -17159.43359375, 16602.205078125, 3569.037109375, 101325.859375, 67242.1171875, -99974.5859375, 187500.0, 0.010000000707805157, -0.01600000075995922, 1.0099999904632568, 192.0, 0.0, 0.0, 0.0, 0.0, 0.0, 0.0, 0.0, 0.0, 0.0, 1.598474815484432E9, 2020-08-26 15:46:55.484
85.0, -101.18634033203125, -19213.693359375, 15578.3828125, 2167.515625, 101494.3046875, 67349.4453125, -101021.25, 187500.0, 0.010000000707805157, -0.01600000075995922, 1.0099999904632568, 192.0, 0.0, 0.0, 0.0, 0.0, 0.0, 0.0, 0.0, 0.0, 0.0, 1.598474815484434E9, 2020-08-26 15:46:55.484
86.0, -72.84432983398438, -37217.6875, -2891.108642578125, -15347.0869140625, 82009.4453125, 49357.859375, -121269.140625, 187500.0, 0.010000000707805157, -0.01600000075995922, 1.0099999904632568, 192.0, 0.0, 0.0, 0.0, 0.0, 0.0, 0.0, 0.0, 0.0, 0.0, 1.598474815484437E9, 2020-08-26 15:46:55.484
87.0, -51.00667953491211, -56090.60546875, -23568.638671875, -34544.9765625, 59762.52734375, 28826.41796875, -143906.203125, 187500.0, 0.010000000707805157, -0.01600000075995922, 1.0099999904632568, 192.0, 0.0, 0.0, 0.0, 0.0, 0.0, 0.0, 0.0, 0.0, 0.0, 1.598474815484439E9, 2020-08-26 15:46:55.484
88.0, -86.8812255859375, -69014.5625, -39080.7734375, -48399.1484375, 42466.75, 13030.3291015625, -161122.828125, 187500.0, 0.010000000707805157, -0.01600000075995922, 1.0099999904632568, 192.0, 0.0, 0.0, 0.0, 0.0, 0.0, 0.0, 0.0, 0.0, 0.0, 1.598474815484441E9, 2020-08-26 15:46:55.484
89.0, -3.8892033100128174, -62639.59765625, -33848.921875, -42800.83984375, 46773.68359375, 17156.037109375, -155598.046875, 187500.0, 0.004000000189989805, -0.01600000075995922, 1.00600004196167, 192.0, 0.0, 32.0, 255.0, 128.0, 31.0, 112.0, 0.0, 0.0, 0.0, 1.598474815484443E9, 2020-08-26 15:46:55.484
90.0, 58.04747772216797, -44149.54296875, -14545.7548828125, -24590.31640625, 67088.78125, 35950.07421875, -134594.21875, 187500.0, 0.004000000189989805, -0.01600000075995922, 1.00600004196167, 192.0, 0.0, 0.0, 0.0, 0.0, 0.0, 0.0, 0.0, 0.0, 0.0, 1.598474815484445E9, 2020-08-26 15:46:55.484
91.0, 90.34574890136719, -29717.42578125, 1806.5125732421875, -9716.392578125, 84891.5234375, 52209.3828125, -116486.2265625, 187500.0, 0.004000000189989805, -0.01600000075995922, 1.00600004196167, 192.0, 0.0, 0.0, 0.0, 0.0, 0.0, 0.0, 0.0, 0.0, 0.0, 1.598474815544687E9, 2020-08-26 15:46:55.544
92.0, 4.045665740966797, -17644.154296875, 16276.1376953125, 3177.881591796875, 101099.7734375, 66992.109375, -100410.7578125, 187500.0, 0.004000000189989805, -0.01600000075995922, 1.00600004196167, 192.0, 0.0, 0.0, 0.0, 0.0, 0.0, 0.0, 0.0, 0.0, 0.0, 1.598474815544706E9, 2020-08-26 15:46:55.544
93.0, -108.60712432861328, -19678.810546875, 15221.6494140625, 1764.8489990234375, 101232.6796875, 67071.1640625, -101500.8515625, 187500.0, 0.004000000189989805, -0.01600000075995922, 1.00600004196167, 192.0, 0.0, 0.0, 0.0, 0.0, 0.0, 0.0, 0.0, 0.0, 0.0, 1.598474815544707E9, 2020-08-26 15:46:55.544
94.0, -89.22815704345703, -36843.85546875, -2388.9990234375, -14903.2490234375, 82605.4765625, 49917.74609375, -120893.359375, 187500.0, 0.004000000189989805, -0.01600000075995922, 1.00600004196167, 192.0, 0.0, 0.0, 0.0, 0.0, 0.0, 0.0, 0.0, 0.0, 0.0, 1.598474815544709E9, 2020-08-26 15:46:55.544
95.0, -46.08929443359375, -55215.4453125, -22498.974609375, -33563.1328125, 60935.90625, 29941.748046875, -142959.453125, 187500.0, 0.004000000189989805, -0.01600000075995922, 1.00600004196167, 192.0, 0.0, 0.0, 0.0, 0.0, 0.0, 0.0, 0.0, 0.0, 0.0, 1.598474815544712E9, 2020-08-26 15:46:55.544
96.0, -68.59750366210938, -69364.3671875, -39256.41015625, -48639.359375, 42400.765625, 12933.8583984375, -161411.46875, 187500.0, 0.004000000189989805, -0.01600000075995922, 1.00600004196167, 192.0, 0.0, 0.0, 0.0, 0.0, 0.0, 0.0, 0.0, 0.0, 0.0, 1.598474815544714E9, 2020-08-26 15:46:55.544
97.0, -6.034970760345459, -63274.703125, -34377.80859375, -43361.48828125, 46352.2421875, 16721.5859375, -156235.671875, 187500.0, 0.004000000189989805, -0.01600000075995922, 1.00600004196167, 192.0, 0.0, 0.0, 0.0, 0.0, 0.0, 0.0, 0.0, 0.0, 0.0, 1.598474815544715E9, 2020-08-26 15:46:55.544
98.0, 40.948394775390625, -44005.17578125, -14305.33984375, -24387.80859375, 67437.625, 36269.14453125, -134467.359375, 187500.0, 0.004000000189989805, -0.01600000075995922, 1.00600004196167, 192.0, 0.0, 0.0, 0.0, 0.0, 0.0, 0.0, 0.0, 0.0, 0.0, 1.598474815544717E9, 2020-08-26 15:46:55.544
99.0, 87.1270980834961, -28814.861328125, 2871.08154296875, -8727.9755859375, 86070.59375, 53330.5, -115543.875, 187500.0, 0.006000000052154064, -0.018000001087784767, 1.0120000839233398, 192.0, 0.0, 48.0, 255.0, 112.0, 31.0, 160.0, 0.0, 0.0, 0.0, 1.598474815544719E9, 2020-08-26 15:46:55.544
100.0, 25.235118865966797, -17769.45703125, 16315.275390625, 3147.30419921875, 101257.734375, 67108.828125, -100494.9609375, 187500.0, 0.006000000052154064, -0.018000001087784767, 1.0120000839233398, 192.0, 0.0, 0.0, 0.0, 0.0, 0.0, 0.0, 0.0, 0.0, 0.0, 1.598474815544721E9, 2020-08-26 15:46:55.544
101.0, -107.0425033569336, -20268.740234375, 14737.533203125, 1236.8114013671875, 100860.9453125, 66670.421875, -102113.5859375, 187500.0, 0.006000000052154064, -0.018000001087784767, 1.0120000839233398, 192.0, 0.0, 0.0, 0.0, 0.0, 0.0, 0.0, 0.0, 0.0, 0.0, 1.598474815544723E9, 2020-08-26 15:46:55.544
102.0, -105.29906463623047, -36821.63671875, -2273.239501953125, -14832.728515625, 82830.9375, 50100.47265625, -120910.703125, 187500.0, 0.006000000052154064, -0.018000001087784767, 1.0120000839233398, 192.0, 0.0, 0.0, 0.0, 0.0, 0.0, 0.0, 0.0, 0.0, 0.0, 1.598474815544725E9, 2020-08-26 15:46:55.544
103.0, -55.27586364746094, -54332.8203125, -21456.265625, -32600.353515625, 62095.22265625, 31026.701171875, -142053.796875, 187500.0, 0.006000000052154064, -0.018000001087784767, 1.0120000839233398, 192.0, 0.0, 0.0, 0.0, 0.0, 0.0, 0.0, 0.0, 0.0, 0.0, 1.598474815544727E9, 2020-08-26 15:46:55.544
104.0, -44.278804779052734, -69286.921875, -38990.13671875, -48461.73046875, 42788.5234375, 13256.103515625, -161278.40625, 187500.0, 0.006000000052154064, -0.018000001087784767, 1.0120000839233398, 192.0, 0.0, 0.0, 0.0, 0.0, 0.0, 0.0, 0.0, 0.0, 0.0, 1.598474815544729E9, 2020-08-26 15:46:55.544
105.0, -2.168119192123413, -63930.43359375, -34902.2265625, -43948.24609375, 45946.578125, 16270.52734375, -156890.671875, 187500.0, 0.006000000052154064, -0.018000001087784767, 1.0120000839233398, 192.0, 0.0, 0.0, 0.0, 0.0, 0.0, 0.0, 0.0, 0.0, 0.0, 1.598474815544731E9, 2020-08-26 15:46:55.544
106.0, 25.83861541748047, -44201.265625, -14396.400390625, -24537.966796875, 67456.2421875, 36235.640625, -134695.390625, 187500.0, 0.006000000052154064, -0.018000001087784767, 1.0120000839233398, 192.0, 0.0, 0.0, 0.0, 0.0, 0.0, 0.0, 0.0, 0.0, 0.0, 1.598474815604E9, 2020-08-26 15:46:55.604
107.0, 72.66551971435547, -28043.5703125, 3793.739013671875, -7893.76416015625, 87103.1328125, 54283.53515625, -114762.4609375, 187500.0, 0.006000000052154064, -0.018000001087784767, 1.0120000839233398, 192.0, 0.0, 0.0, 0.0, 0.0, 0.0, 0.0, 0.0, 0.0, 0.0, 1.598474815604014E9, 2020-08-26 15:46:55.604
108.0, 49.28559494018555, -17439.076171875, 16838.037109375, 3571.205078125, 101895.7421875, 67669.4140625, -100107.40625, 187500.0, 0.006000000052154064, -0.018000001087784767, 1.0120000839233398, 192.0, 0.0, 0.0, 0.0, 0.0, 0.0, 0.0, 0.0, 0.0, 0.0, 1.598474815604017E9, 2020-08-26 15:46:55.604
109.0, -101.00753021240234, -20889.08984375, 14248.87890625, 686.1762084960938, 100485.3671875, 66248.265625, -102726.421875, 187500.0, 0.00800000037997961, -0.020000001415610313, 1.0120000839233398, 192.0, 0.0, 64.0, 255.0, 96.0, 31.0, 160.0, 0.0, 0.0, 0.0, 1.59847481560402E9, 2020-08-26 15:46:55.604
110.0, -118.21836853027344, -37173.65234375, -2540.5439453125, -15146.234375, 82670.984375, 49894.1640625, -121300.65625, 187500.0, 0.00800000037997961, -0.020000001415610313, 1.0120000839233398, 192.0, 0.0, 0.0, 0.0, 0.0, 0.0, 0.0, 0.0, 0.0, 0.0, 1.598474815604023E9, 2020-08-26 15:46:55.604
111.0, -72.73257446289062, -53687.75, -20687.74609375, -31903.873046875, 62971.56640625, 31827.921875, -141415.375, 187500.0, 0.00800000037997961, -0.020000001415610313, 1.0120000839233398, 192.0, 0.0, 0.0, 0.0, 0.0, 0.0, 0.0, 0.0, 0.0, 0.0, 1.598474815604026E9, 2020-08-26 15:46:55.604
112.0, -24.609270095825195, -68705.390625, -38224.296875, -47788.2734375, 43667.57421875, 14053.546875, -160642.46875, 187500.0, 0.00800000037997961, -0.020000001415610313, 1.0120000839233398, 192.0, 0.0, 0.0, 0.0, 0.0, 0.0, 0.0, 0.0, 0.0, 0.0, 1.598474815604029E9, 2020-08-26 15:46:55.604
113.0, 7.353723526000977, -64505.3203125, -35343.8515625, -44448.1640625, 45614.6328125, 15890.7265625, -157452.765625, 187500.0, 0.00800000037997961, -0.020000001415610313, 1.0120000839233398, 192.0, 0.0, 0.0, 0.0, 0.0, 0.0, 0.0, 0.0, 0.0, 0.0, 1.598474815604031E9, 2020-08-26 15:46:55.604
114.0, 16.227365493774414, -44694.58984375, -14808.8349609375, -24987.283203125, 67146.2734375, 35884.875, -135229.953125, 187500.0, 0.00800000037997961, -0.020000001415610313, 1.0120000839233398, 192.0, 0.0, 0.0, 0.0, 0.0, 0.0, 0.0, 0.0, 0.0, 0.0, 1.598474815604034E9, 2020-08-26 15:46:55.604
115.0, 54.73942184448242, -27576.44140625, 4367.44140625, -7377.5283203125, 87775.8125, 54894.40625, -114320.6953125, 187500.0, 0.00800000037997961, -0.020000001415610313, 1.0120000839233398, 192.0, 0.0, 0.0, 0.0, 0.0, 0.0, 0.0, 0.0, 0.0, 0.0, 1.598474815604037E9, 2020-08-26 15:46:55.604
116.0, 61.713165283203125, -16698.763671875, 17755.173828125, 4393.32470703125, 102913.75, 68614.84375, -99328.6640625, 187500.0, 0.00800000037997961, -0.020000001415610313, 1.0120000839233398, 192.0, 0.0, 0.0, 0.0, 0.0, 0.0, 0.0, 0.0, 0.0, 0.0, 1.59847481560404E9, 2020-08-26 15:46:55.604
117.0, -87.9764633178711, -21373.876953125, 13905.376953125, 272.6689147949219, 100240.6640625, 65962.296875, -103203.234375, 187500.0, 0.00800000037997961, -0.020000001415610313, 1.0120000839233398, 192.0, 0.0, 0.0, 0.0, 0.0, 0.0, 0.0, 0.0, 0.0, 0.0, 1.598474815604042E9, 2020-08-26 15:46:55.604
118.0, -124.29804992675781, -37719.1484375, -2999.20166015625, -15648.298828125, 82305.0625, 49495.61328125, -121892.53125, 187500.0, 0.00800000037997961, -0.020000001415610313, 1.0120000839233398, 192.0, 0.0, 0.0, 0.0, 0.0, 0.0, 0.0, 0.0, 0.0, 0.0, 1.598474815604045E9, 2020-08-26 15:46:55.604
119.0, -89.49638366699219, -53400.73046875, -20304.771484375, -31575.615234375, 63444.0625, 32250.75, -141167.09375, 187500.0, 0.00800000037997961, -0.018000001087784767, 1.0099999904632568, 192.0, 0.0, 64.0, 255.0, 112.0, 31.0, 144.0, 0.0, 0.0, 0.0, 1.598474815604047E9, 2020-08-26 15:46:55.604
120.0, -20.608306884765625, -67856.3359375, -37209.1953125, -46864.85546875, 44776.93359375, 15088.3212890625, -159769.0625, 187500.0, 0.00800000037997961, -0.018000001087784767, 1.0099999904632568, 192.0, 0.0, 0.0, 0.0, 0.0, 0.0, 0.0, 0.0, 0.0, 0.0, 1.59847481560405E9, 2020-08-26 15:46:55.604
121.0, 24.743379592895508, -64862.2109375, -35550.08984375, -44731.60546875, 45505.37890625, 15730.486328125, -157795.375, 187500.0, 0.00800000037997961, -0.018000001087784767, 1.0099999904632568, 192.0, 0.0, 0.0, 0.0, 0.0, 0.0, 0.0, 0.0, 0.0, 0.0, 1.59847481566379E9, 2020-08-26 15:46:55.663
122.0, 14.34981918334961, -45335.23828125, -15360.341796875, -25588.25390625, 66683.4296875, 35388.30859375, -135917.328125, 187500.0, 0.00800000037997961, -0.018000001087784767, 1.0099999904632568, 192.0, 0.0, 0.0, 0.0, 0.0, 0.0, 0.0, 0.0, 0.0, 0.0, 1.598474815663798E9, 2020-08-26 15:46:55.663
123.0, 38.467350006103516, -27473.130859375, 4553.00537109375, -7243.70849609375, 88047.40625, 55117.5234375, -114276.21875, 187500.0, 0.00800000037997961, -0.018000001087784767, 1.0099999904632568, 192.0, 0.0, 0.0, 0.0, 0.0, 0.0, 0.0, 0.0, 0.0, 0.0, 1.598474815663801E9, 2020-08-26 15:46:55.663
124.0, 59.187416076660156, -15866.384765625, 18725.59765625, 5286.85791015625, 103981.0703125, 69605.03125, -98493.515625, 187500.0, 0.00800000037997961, -0.018000001087784767, 1.0099999904632568, 192.0, 0.0, 0.0, 0.0, 0.0, 0.0, 0.0, 0.0, 0.0, 0.0, 1.598474815663803E9, 2020-08-26 15:46:55.663
125.0, -66.80936431884766, -21580.564453125, 13831.884765625, 135.85389709472656, 100268.3984375, 65937.5078125, -103403.90625, 187500.0, 0.00800000037997961, -0.018000001087784767, 1.0099999904632568, 192.0, 0.0, 0.0, 0.0, 0.0, 0.0, 0.0, 0.0, 0.0, 0.0, 1.598474815663805E9, 2020-08-26 15:46:55.663
126.0, -122.97929382324219, -38391.48828125, -3599.457763671875, -16283.9609375, 81794.21875, 48956.46484375, -122623.6796875, 187500.0, 0.00800000037997961, -0.018000001087784767, 1.0099999904632568, 192.0, 0.0, 0.0, 0.0, 0.0, 0.0, 0.0, 0.0, 0.0, 0.0, 1.598474815663808E9, 2020-08-26 15:46:55.663
127.0, -106.66252136230469, -53476.6796875, -20324.216796875, -31628.365234375, 63505.125, 32274.30859375, -141323.609375, 187500.0, 0.00800000037997961, -0.018000001087784767, 1.0099999904632568, 192.0, 0.0, 0.0, 0.0, 0.0, 0.0, 0.0, 0.0, 0.0, 0.0, 1.59847481566381E9, 2020-08-26 15:46:55.663
128.0, -30.577184677124023, -67029.015625, -36264.23046875, -45984.15234375, 45807.75390625, 16053.40234375, -158970.578125, 187500.0, 0.00800000037997961, -0.018000001087784767, 1.0099999904632568, 192.0, 0.0, 0.0, 0.0, 0.0, 0.0, 0.0, 0.0, 0.0, 0.0, 1.598474815663812E9, 2020-08-26 15:46:55.663
129.0, 48.9279670715332, -64815.85546875, -35356.703125, -44604.08984375, 45789.4921875, 15965.4033203125, -157750.578125, 187500.0, 0.00800000037997961, -0.018000001087784767, 1.0099999904632568, 192.0, 0.0, 0.0, 0.0, 0.0, 0.0, 0.0, 0.0, 0.0, 0.0, 1.598474815663814E9, 2020-08-26 15:46:55.663
130.0, 18.194318771362305, -46020.2734375, -15961.2685546875, -26217.298828125, 66172.5390625, 34851.0390625, -136660.734375, 187500.0, 0.006000000052154064, -0.01600000075995922, 1.0099999904632568, 192.0, 0.0, 48.0, 255.0, 128.0, 31.0, 144.0, 0.0, 0.0, 0.0, 1.598474815663816E9, 2020-08-26 15:46:55.663
131.0, 23.782255172729492, -27708.271484375, 4365.31787109375, -7443.130859375, 87949.5078125, 54986.02734375, -114603.625, 187500.0, 0.006000000052154064, -0.01600000075995922, 1.0099999904632568, 192.0, 0.0, 0.0, 0.0, 0.0, 0.0, 0.0, 0.0, 0.0, 0.0, 1.598474815663819E9, 2020-08-26 15:46:55.663
132.0, 45.10581970214844, -15181.013671875, 19507.9765625, 6029.3828125, 104854.265625, 70417.8515625, -97854.0546875, 187500.0, 0.006000000052154064, -0.01600000075995922, 1.0099999904632568, 192.0, 0.0, 0.0, 0.0, 0.0, 0.0, 0.0, 0.0, 0.0, 0.0, 1.598474815663821E9, 2020-08-26 15:46:55.663
133.0, -42.93769836425781, -21368.892578125, 14180.0576171875, 429.17584228515625, 100710.8359375, 66321.0625, -103192.2109375, 187500.0, 0.006000000052154064, -0.01600000075995922, 1.0099999904632568, 192.0, 0.0, 0.0, 0.0, 0.0, 0.0, 0.0, 0.0, 0.0, 0.0, 1.598474815663824E9, 2020-08-26 15:46:55.663
134.0, -116.7208023071289, -39094.47265625, -4234.15771484375, -16942.822265625, 81252.3671875, 48380.41796875, -123389.71875, 187500.0, 0.006000000052154064, -0.01600000075995922, 1.0099999904632568, 192.0, 0.0, 0.0, 0.0, 0.0, 0.0, 0.0, 0.0, 0.0, 0.0, 1.598474815663826E9, 2020-08-26 15:46:55.663
135.0, -118.15131378173828, -53884.12890625, -20713.00390625, -32027.724609375, 63208.00390625, 31941.267578125, -141844.1875, 187500.0, 0.006000000052154064, -0.01600000075995922, 1.0099999904632568, 192.0, 0.0, 0.0, 0.0, 0.0, 0.0, 0.0, 0.0, 0.0, 0.0, 1.598474815663828E9, 2020-08-26 15:46:55.663
136.0, -47.6539192199707, -66465.9921875, -35645.51171875, -45403.453125, 46520.2578125, 16700.171875, -158489.21875, 187500.0, 0.006000000052154064, -0.01600000075995922, 1.0099999904632568, 192.0, 0.0, 0.0, 0.0, 0.0, 0.0, 0.0, 0.0, 0.0, 0.0, 1.598474815724066E9, 2020-08-26 15:46:55.724
137.0, 68.37398529052734, -64296.78125, -34718.71875, -44026.5859375, 46526.51953125, 16621.314453125, -157245.953125, 187500.0, 0.006000000052154064, -0.01600000075995922, 1.0099999904632568, 192.0, 0.0, 0.0, 0.0, 0.0, 0.0, 0.0, 0.0, 0.0, 0.0, 1.598474815724072E9, 2020-08-26 15:46:55.724
138.0, 27.626754760742188, -46656.5390625, -16524.845703125, -26807.630859375, 65706.3046875, 34333.57421875, -137342.125, 187500.0, 0.006000000052154064, -0.01600000075995922, 1.0099999904632568, 192.0, 0.0, 0.0, 0.0, 0.0, 0.0, 0.0, 0.0, 0.0, 0.0, 1.598474815724074E9, 2020-08-26 15:46:55.724
139.0, 13.723970413208008, -28253.4765625, 3841.16943359375, -7972.62109375, 87514.921875, 54506.46875, -115240.8984375, 187500.0, 0.006000000052154064, -0.01600000075995922, 1.0099999904632568, 192.0, 0.0, 0.0, 0.0, 0.0, 0.0, 0.0, 0.0, 0.0, 0.0, 1.598474815724077E9, 2020-08-26 15:46:55.724
140.0, 28.27495574951172, -14799.5361328125, 19931.18359375, 6430.73095703125, 105367.4375, 70862.109375, -97547.6328125, 187500.0, 0.00800000037997961, -0.012000000104308128, 1.0080000162124634, 192.0, 0.0, 64.0, 255.0, 160.0, 31.0, 128.0, 0.0, 0.0, 0.0, 1.598474815724079E9, 2020-08-26 15:46:55.724
141.0, -29.213729858398438, -20839.40234375, 14809.505859375, 1014.1656494140625, 101440.015625, 66970.921875, -102667.015625, 187500.0, 0.00800000037997961, -0.012000000104308128, 1.0080000162124634, 192.0, 0.0, 0.0, 0.0, 0.0, 0.0, 0.0, 0.0, 0.0, 0.0, 1.598474815724082E9, 2020-08-26 15:46:55.724
142.0, -104.15912628173828, -39770.9921875, -4853.83740234375, -17572.8515625, 80732.6640625, 47812.9296875, -124111.1640625, 187500.0, 0.00800000037997961, -0.012000000104308128, 1.0080000162124634, 192.0, 0.0, 0.0, 0.0, 0.0, 0.0, 0.0, 0.0, 0.0, 0.0, 1.598474815724084E9, 2020-08-26 15:46:55.724
143.0, -124.47686004638672, -54586.5546875, -21415.96484375, -32712.71484375, 62593.82421875, 31290.451171875, -142656.359375, 187500.0, 0.00800000037997961, -0.012000000104308128, 1.0080000162124634, 192.0, 0.0, 0.0, 0.0, 0.0, 0.0, 0.0, 0.0, 0.0, 0.0, 1.598474815724086E9, 2020-08-26 15:46:55.724
144.0, -65.13298034667969, -66295.453125, -35465.5546875, -45212.63671875, 46780.703125, 16910.703125, -158424.0, 187500.0, 0.00800000037997961, -0.012000000104308128, 1.0080000162124634, 192.0, 0.0, 0.0, 0.0, 0.0, 0.0, 0.0, 0.0, 0.0, 0.0, 1.598474815724089E9, 2020-08-26 15:46:55.724
145.0, 71.81615447998047, -63536.28515625, -33879.85546875, -43211.375, 47449.375, 17475.978515625, -156526.515625, 187500.0, 0.00800000037997961, -0.012000000104308128, 1.0080000162124634, 192.0, 0.0, 0.0, 0.0, 0.0, 0.0, 0.0, 0.0, 0.0, 0.0, 1.598474815724091E9, 2020-08-26 15:46:55.724
146.0, 45.84342575073242, -47096.17578125, -16904.4453125, -27194.337890625, 65412.22265625, 34001.5625, -137837.578125, 187500.0, 0.00800000037997961, -0.012000000104308128, 1.0080000162124634, 192.0, 0.0, 0.0, 0.0, 0.0, 0.0, 0.0, 0.0, 0.0, 0.0, 1.598474815724093E9, 2020-08-26 15:46:55.724
147.0, 12.516976356506348, -28993.33984375, 3095.917724609375, -8698.4267578125, 86850.2265625, 53819.22265625, -116104.3671875, 187500.0, 0.00800000037997961, -0.012000000104308128, 1.0080000162124634, 192.0, 0.0, 0.0, 0.0, 0.0, 0.0, 0.0, 0.0, 0.0, 0.0, 1.598474815724096E9, 2020-08-26 15:46:55.724
148.0, 11.466444969177246, -14776.2236328125, 19942.181640625, 6454.826171875, 105450.5, 70909.1640625, -97661.3359375, 187500.0, 0.00800000037997961, -0.012000000104308128, 1.0080000162124634, 192.0, 0.0, 0.0, 0.0, 0.0, 0.0, 0.0, 0.0, 0.0, 0.0, 1.598474815724098E9, 2020-08-26 15:46:55.724
149.0, -32.54413986206055, -20091.646484375, 15608.0888671875, 1791.2686767578125, 102310.546875, 67784.1875, -101992.171875, 187500.0, 0.00800000037997961, -0.012000000104308128, 1.0080000162124634, 192.0, 0.0, 0.0, 0.0, 0.0, 0.0, 0.0, 0.0, 0.0, 0.0, 1.5984748157241E9, 2020-08-26 15:46:55.724
150.0, -82.6343994140625, -40049.33984375, -5083.39013671875, -17812.306640625, 80579.015625, 47624.81640625, -124459.671875, 187500.0, 0.006000000052154064, -0.014000000432133675, 1.0120000839233398, 192.0, 0.0, 48.0, 255.0, 144.0, 31.0, 160.0, 0.0, 0.0, 0.0, 1.598474815724103E9, 2020-08-26 15:46:55.724
151.0, -122.5099105834961, -55350.62890625, -22195.884765625, -33472.65234375, 61881.2265625, 30565.986328125, -143556.59375, 187500.0, 0.006000000052154064, -0.014000000432133675, 1.0120000839233398, 192.0, 0.0, 0.0, 0.0, 0.0, 0.0, 0.0, 0.0, 0.0, 0.0, 1.598474815784395E9, 2020-08-26 15:46:55.784
152.0, -81.69562530517578, -66459.3125, -35664.28515625, -45392.16796875, 46641.7421875, 16749.369140625, -158746.59375, 187500.0, 0.006000000052154064, -0.014000000432133675, 1.0120000839233398, 192.0, 0.0, 0.0, 0.0, 0.0, 0.0, 0.0, 0.0, 0.0, 0.0, 1.598474815784402E9, 2020-08-26 15:46:55.784
153.0, 61.60140609741211, -62787.2109375, -33103.37890625, -42451.2578125, 48283.1875, 18260.8828125, -155880.25, 187500.0, 0.006000000052154064, -0.014000000432133675, 1.0120000839233398, 192.0, 0.0, 0.0, 0.0, 0.0, 0.0, 0.0, 0.0, 0.0, 0.0, 1.598474815784405E9, 2020-08-26 15:46:55.784
154.0, 70.02801513671875, -47106.5, -16858.265625, -27169.68359375, 65517.72265625, 34067.1640625, -137916.828125, 187500.0, 0.006000000052154064, -0.014000000432133675, 1.0120000839233398, 192.0, 0.0, 0.0, 0.0, 0.0, 0.0, 0.0, 0.0, 0.0, 0.0, 1.598474815784407E9, 2020-08-26 15:46:55.784
155.0, 16.33912467956543, -29755.916015625, 2329.073974609375, -9452.1728515625, 86136.84375, 53088.5, -116988.203125, 187500.0, 0.006000000052154064, -0.014000000432133675, 1.0120000839233398, 192.0, 0.0, 0.0, 0.0, 0.0, 0.0, 0.0, 0.0, 0.0, 0.0, 1.598474815784409E9, 2020-08-26 15:46:55.784
156.0, -3.464520215988159, -15109.1748046875, 19571.8125, 6108.59765625, 105128.875, 70563.0, -98145.296875, 187500.0, 0.006000000052154064, -0.014000000432133675, 1.0120000839233398, 192.0, 0.0, 0.0, 0.0, 0.0, 0.0, 0.0, 0.0, 0.0, 0.0, 1.598474815784412E9, 2020-08-26 15:46:55.784
157.0, -47.6539192199707, -19463.98828125, 16242.54296875, 2422.638427734375, 103000.4296875, 68415.9609375, -101471.3046875, 187500.0, 0.006000000052154064, -0.014000000432133675, 1.0120000839233398, 192.0, 0.0, 0.0, 0.0, 0.0, 0.0, 0.0, 0.0, 0.0, 0.0, 1.598474815784414E9, 2020-08-26 15:46:55.784
158.0, -59.03095626831055, -39814.4453125, -4797.9580078125, -17544.822265625, 80926.3203125, 47912.7734375, -124285.6171875, 187500.0, 0.006000000052154064, -0.014000000432133675, 1.0120000839233398, 192.0, 0.0, 0.0, 0.0, 0.0, 0.0, 0.0, 0.0, 0.0, 0.0, 1.598474815784416E9, 2020-08-26 15:46:55.784
159.0, -116.47493743896484, -56084.90625, -22939.169921875, -34198.4375, 61199.8125, 29853.033203125, -144399.28125, 187500.0, 0.006000000052154064, -0.014000000432133675, 1.0120000839233398, 192.0, 0.0, 0.0, 0.0, 0.0, 0.0, 0.0, 0.0, 0.0, 0.0, 1.598474815784418E9, 2020-08-26 15:46:55.784
160.0, -93.67615509033203, -66933.34375, -36195.09375, -45886.5859375, 46171.7734375, 16249.4267578125, -159372.984375, 187500.0, 0.006000000052154064, -0.012000000104308128, 1.00600004196167, 192.0, 0.0, 48.0, 255.0, 160.0, 31.0, 112.0, 0.0, 0.0, 0.0, 1.598474815784421E9, 2020-08-26 15:46:55.784
161.0, 44.323509216308594, -62287.625, -32628.78515625, -41960.01171875, 48824.72265625, 18744.283203125, -155502.984375, 187500.0, 0.006000000052154064, -0.012000000104308128, 1.00600004196167, 192.0, 0.0, 0.0, 0.0, 0.0, 0.0, 0.0, 0.0, 0.0, 0.0, 1.598474815784423E9, 2020-08-26 15:46:55.784
162.0, 89.16110229492188, -46621.89453125, -16338.4765625, -26657.91796875, 66108.1171875, 34593.32421875, -137499.515625, 187500.0, 0.006000000052154064, -0.012000000104308128, 1.00600004196167, 192.0, 0.0, 0.0, 0.0, 0.0, 0.0, 0.0, 0.0, 0.0, 0.0, 1.598474815784425E9, 2020-08-26 15:46:55.784
163.0, 26.106836318969727, -30429.88671875, 1645.937744140625, -10114.0302734375, 85518.8671875, 52443.0703125, -117767.78125, 187500.0, 0.006000000052154064, -0.012000000104308128, 1.00600004196167, 192.0, 0.0, 0.0, 0.0, 0.0, 0.0, 0.0, 0.0, 0.0, 0.0, 1.598474815784428E9, 2020-08-26 15:46:55.784
164.0, -12.941659927368164, -15679.6806640625, 18946.92578125, 5523.853515625, 104558.3046875, 69974.953125, -98867.2421875, 187500.0, 0.006000000052154064, -0.012000000104308128, 1.00600004196167, 192.0, 0.0, 0.0, 0.0, 0.0, 0.0, 0.0, 0.0, 0.0, 0.0, 1.59847481578443E9, 2020-08-26 15:46:55.784
165.0, -64.7977066040039, -19066.796875, 16617.203125, 2814.732666015625, 103423.7734375, 68798.3515625, -101202.859375, 187500.0, 0.006000000052154064, -0.012000000104308128, 1.00600004196167, 192.0, 0.0, 0.0, 0.0, 0.0, 0.0, 0.0, 0.0, 0.0, 0.0, 1.598474815784432E9, 2020-08-26 15:46:55.784
166.0, -47.43040084838867, -39124.06640625, -4054.606201171875, -16822.34765625, 81719.3125, 48649.0390625, -123647.09375, 187500.0, 0.006000000052154064, -0.012000000104308128, 1.00600004196167, 192.0, 0.0, 0.0, 0.0, 0.0, 0.0, 0.0, 0.0, 0.0, 0.0, 1.598474815844681E9, 2020-08-26 15:46:55.844
167.0, -102.92977905273438, -56639.96484375, -23472.662109375, -34729.40234375, 60715.71875, 29345.470703125, -145026.109375, 187500.0, 0.006000000052154064, -0.012000000104308128, 1.00600004196167, 192.0, 0.0, 0.0, 0.0, 0.0, 0.0, 0.0, 0.0, 0.0, 0.0, 1.598474815845131E9, 2020-08-26 15:46:55.845
168.0, -99.5546646118164, -67582.2421875, -36876.7109375, -46542.72265625, 45529.13671875, 15598.701171875, -160146.265625, 187500.0, 0.006000000052154064, -0.012000000104308128, 1.00600004196167, 192.0, 0.0, 0.0, 0.0, 0.0, 0.0, 0.0, 0.0, 0.0, 0.0, 1.598474815845139E9, 2020-08-26 15:46:55.845
169.0, 28.00673484802246, -62091.17578125, -32454.173828125, -41774.6484375, 49033.17578125, 18927.859375, -155426.921875, 187500.0, 0.006000000052154064, -0.012000000104308128, 1.00600004196167, 192.0, 0.0, 0.0, 0.0, 0.0, 0.0, 0.0, 0.0, 0.0, 0.0, 1.598474815845141E9, 2020-08-26 15:46:55.845
170.0, 92.1785888671875, -45841.63671875, -15512.7138671875, -25856.02734375, 66977.421875, 35414.08203125, -136769.625, 187500.0, 0.004000000189989805, -0.010000000707805157, 1.0099999904632568, 192.0, 0.0, 32.0, 255.0, 176.0, 31.0, 144.0, 0.0, 0.0, 0.0, 1.598474815845143E9, 2020-08-26 15:46:55.845
171.0, 44.234100341796875, -30837.181640625, 1266.1815185546875, -10502.7265625, 85187.0546875, 52090.203125, -118232.5, 187500.0, 0.004000000189989805, -0.010000000707805157, 1.0099999904632568, 192.0, 0.0, 0.0, 0.0, 0.0, 0.0, 0.0, 0.0, 0.0, 0.0, 1.598474815845145E9, 2020-08-26 15:46:55.845
172.0, -15.847386360168457, -16333.6708984375, 18253.953125, 4850.08251953125, 103911.515625, 69320.3359375, -99647.1328125, 187500.0, 0.004000000189989805, -0.010000000707805157, 1.0099999904632568, 192.0, 0.0, 0.0, 0.0, 0.0, 0.0, 0.0, 0.0, 0.0, 0.0, 1.598474815845148E9, 2020-08-26 15:46:55.845
173.0, -82.34382629394531, -18844.017578125, 16803.99609375, 3013.1044921875, 103654.4453125, 69004.125, -101118.7734375, 187500.0, 0.004000000189989805, -0.010000000707805157, 1.0099999904632568, 192.0, 0.0, 0.0, 0.0, 0.0, 0.0, 0.0, 0.0, 0.0, 0.0, 1.59847481584515E9, 2020-08-26 15:46:55.845
174.0, -50.82786560058594, -38215.15625, -3110.669921875, -15897.2529296875, 82718.7265625, 49599.61328125, -122797.015625, 187500.0, 0.004000000189989805, -0.010000000707805157, 1.0099999904632568, 192.0, 0.0, 0.0, 0.0, 0.0, 0.0, 0.0, 0.0, 0.0, 0.0, 1.598474815845152E9, 2020-08-26 15:46:55.845
175.0, -80.5556869506836, -56791.625, -23577.37890625, -34843.1953125, 60672.87109375, 29275.396484375, -145213.796875, 187500.0, 0.004000000189989805, -0.010000000707805157, 1.0099999904632568, 192.0, 0.0, 0.0, 0.0, 0.0, 0.0, 0.0, 0.0, 0.0, 0.0, 1.598474815845154E9, 2020-08-26 15:46:55.845
176.0, -97.25243377685547, -68274.5, -37582.66796875, -47226.5078125, 44883.88671875, 14946.119140625, -160924.265625, 187500.0, 0.004000000189989805, -0.010000000707805157, 1.0099999904632568, 192.0, 0.0, 0.0, 0.0, 0.0, 0.0, 0.0, 0.0, 0.0, 0.0, 1.598474815845156E9, 2020-08-26 15:46:55.845
177.0, 11.35468578338623, -62181.14453125, -32575.029296875, -41874.49609375, 48969.8984375, 18847.861328125, -155619.03125, 187500.0, 0.004000000189989805, -0.010000000707805157, 1.0099999904632568, 192.0, 0.0, 0.0, 0.0, 0.0, 0.0, 0.0, 0.0, 0.0, 0.0, 1.598474815845158E9, 2020-08-26 15:46:55.845
178.0, 81.87443542480469, -45035.3203125, -14667.638671875, -25026.0625, 67877.3515625, 36273.50390625, -136005.71875, 187500.0, 0.004000000189989805, -0.010000000707805157, 1.0099999904632568, 192.0, 0.0, 0.0, 0.0, 0.0, 0.0, 0.0, 0.0, 0.0, 0.0, 1.59847481584516E9, 2020-08-26 15:46:55.845
179.0, 68.23987579345703, -30778.41796875, 1399.643798828125, -10389.3583984375, 85376.7734375, 52248.765625, -118181.734375, 187500.0, 0.004000000189989805, -0.010000000707805157, 1.0099999904632568, 192.0, 0.0, 0.0, 0.0, 0.0, 0.0, 0.0, 0.0, 0.0, 0.0, 1.598474815845162E9, 2020-08-26 15:46:55.845
180.0, -12.24875545501709, -17021.1875, 17586.330078125, 4195.109375, 103295.25, 68696.09375, -100394.9609375, 187500.0, 0.004000000189989805, -0.010000000707805157, 1.0099999904632568, 192.0, 0.0, 32.0, 255.0, 176.0, 31.0, 144.0, 0.0, 0.0, 0.0, 1.598474815845164E9, 2020-08-26 15:46:55.845
181.0, -97.58771514892578, -19043.619140625, 16597.466796875, 2825.68505859375, 103490.9609375, 68826.1796875, -101415.78125, 187500.0, 0.004000000189989805, -0.010000000707805157, 1.0099999904632568, 192.0, 0.0, 0.0, 0.0, 0.0, 0.0, 0.0, 0.0, 0.0, 0.0, 1.598474815903969E9, 2020-08-26 15:46:55.903
182.0, -65.5129623413086, -37476.2734375, -2320.267333984375, -15121.22265625, 83551.5546875, 50389.94921875, -122102.140625, 187500.0, 0.004000000189989805, -0.010000000707805157, 1.0099999904632568, 192.0, 0.0, 0.0, 0.0, 0.0, 0.0, 0.0, 0.0, 0.0, 0.0, 1.598474815903976E9, 2020-08-26 15:46:55.903
183.0, -56.90753936767578, -56469.3125, -23153.857421875, -34453.11328125, 61144.40234375, 29700.751953125, -144883.125, 187500.0, 0.004000000189989805, -0.010000000707805157, 1.0099999904632568, 192.0, 0.0, 0.0, 0.0, 0.0, 0.0, 0.0, 0.0, 0.0, 0.0, 1.598474815903977E9, 2020-08-26 15:46:55.903
184.0, -91.06100463867188, -68935.0546875, -38195.2421875, -47842.6796875, 44313.80859375, 14356.994140625, -161627.265625, 187500.0, 0.004000000189989805, -0.010000000707805157, 1.0099999904632568, 192.0, 0.0, 0.0, 0.0, 0.0, 0.0, 0.0, 0.0, 0.0, 0.0, 1.598474815903979E9, 2020-08-26 15:46:55.903
185.0, -0.6929040551185608, -62580.390625, -32969.1796875, -42255.7265625, 48610.99609375, 18471.01171875, -156103.921875, 187500.0, 0.004000000189989805, -0.010000000707805157, 1.0099999904632568, 192.0, 0.0, 0.0, 0.0, 0.0, 0.0, 0.0, 0.0, 0.0, 0.0, 1.59847481590398E9, 2020-08-26 15:46:55.903
186.0, 64.6635971069336, -44465.328125, -14058.822265625, -24429.205078125, 68525.328125, 36874.36328125, -135493.828125, 187500.0, 0.004000000189989805, -0.010000000707805157, 1.0099999904632568, 192.0, 0.0, 0.0, 0.0, 0.0, 0.0, 0.0, 0.0, 0.0, 0.0, 1.598474815903982E9, 2020-08-26 15:46:55.903
187.0, 87.52942657470703, -30215.490234375, 2066.731689453125, -9761.6103515625, 86088.234375, 52906.48828125, -117614.3359375, 187500.0, 0.004000000189989805, -0.010000000707805157, 1.0099999904632568, 192.0, 0.0, 0.0, 0.0, 0.0, 0.0, 0.0, 0.0, 0.0, 0.0, 1.598474815903983E9, 2020-08-26 15:46:55.903
188.0, -2.3245813846588135, -17599.96484375, 17070.40625, 3663.696533203125, 102817.75, 68196.890625, -101008.1328125, 187500.0, 0.004000000189989805, -0.010000000707805157, 1.0099999904632568, 192.0, 0.0, 0.0, 0.0, 0.0, 0.0, 0.0, 0.0, 0.0, 0.0, 1.598474815903985E9, 2020-08-26 15:46:55.903
189.0, -107.06484985351562, -19522.482421875, 16136.1708984375, 2365.552001953125, 103064.46875, 68381.1171875, -101973.5234375, 187500.0, 0.004000000189989805, -0.010000000707805157, 1.0099999904632568, 192.0, 0.0, 0.0, 0.0, 0.0, 0.0, 0.0, 0.0, 0.0, 0.0, 1.598474815903987E9, 2020-08-26 15:46:55.903
190.0, -82.36617279052734, -37036.546875, -1835.8157958984375, -14657.4462890625, 84073.2265625, 50869.68359375, -121716.78125, 187500.0, 0.004000000189989805, -0.010000000707805157, 1.0099999904632568, 192.0, 0.0, 32.0, 255.0, 176.0, 31.0, 144.0, 0.0, 0.0, 0.0, 1.598474815903988E9, 2020-08-26 15:46:55.903
191.0, -45.64226150512695, -55714.6953125, -22285.984375, -33638.703125, 62058.1171875, 30560.220703125, -144115.578125, 187500.0, 0.004000000189989805, -0.010000000707805157, 1.0099999904632568, 192.0, 0.0, 0.0, 0.0, 0.0, 0.0, 0.0, 0.0, 0.0, 0.0, 1.59847481590399E9, 2020-08-26 15:46:55.903
192.0, -76.57707214355469, -69422.9921875, -38603.25, -48278.60546875, 43957.18359375, 13979.1826171875, -162126.734375, 187500.0, 0.004000000189989805, -0.010000000707805157, 1.0099999904632568, 192.0, 0.0, 0.0, 0.0, 0.0, 0.0, 0.0, 0.0, 0.0, 0.0, 1.598474815903992E9, 2020-08-26 15:46:55.903
193.0, -5.789101600646973, -63196.42578125, -33562.08203125, -42853.546875, 48062.4609375, 17913.603515625, -156790.234375, 187500.0, 0.004000000189989805, -0.010000000707805157, 1.0099999904632568, 192.0, 0.0, 0.0, 0.0, 0.0, 0.0, 0.0, 0.0, 0.0, 0.0, 1.598474815903993E9, 2020-08-26 15:46:55.903
194.0, 47.81037902832031, -44205.3125, -13765.857421875, -24155.619140625, 68855.2578125, 37177.74609375, -135299.328125, 187500.0, 0.004000000189989805, -0.010000000707805157, 1.0099999904632568, 192.0, 0.0, 0.0, 0.0, 0.0, 0.0, 0.0, 0.0, 0.0, 0.0, 1.598474815903995E9, 2020-08-26 15:46:55.903
195.0, 90.21163940429688, -29351.236328125, 3032.326904296875, -8850.8212890625, 87097.0546875, 53866.40625, -116747.71875, 187500.0, 0.004000000189989805, -0.010000000707805157, 1.0099999904632568, 192.0, 0.0, 0.0, 0.0, 0.0, 0.0, 0.0, 0.0, 0.0, 0.0, 1.598474815903997E9, 2020-08-26 15:46:55.903
196.0, 15.5791654586792, -17901.220703125, 16860.076171875, 3413.40185546875, 102652.7734375, 68014.546875, -101312.296875, 187500.0, 0.004000000189989805, -0.010000000707805157, 1.0099999904632568, 192.0, 0.0, 0.0, 0.0, 0.0, 0.0, 0.0, 0.0, 0.0, 0.0, 1.598474815964514E9, 2020-08-26 15:46:55.964
197.0, -108.60712432861328, -20125.935546875, 15568.5478515625, 1780.3834228515625, 102530.78125, 67848.9609375, -102636.1015625, 187500.0, 0.004000000189989805, -0.010000000707805157, 1.0099999904632568, 192.0, 0.0, 0.0, 0.0, 0.0, 0.0, 0.0, 0.0, 0.0, 0.0, 1.59847481596452E9, 2020-08-26 15:46:55.964
198.0, -99.50996398925781, -36901.87890625, -1664.7578125, -14510.193359375, 84270.8359375, 51051.984375, -121645.1640625, 187500.0, 0.004000000189989805, -0.010000000707805157, 1.0099999904632568, 192.0, 0.0, 0.0, 0.0, 0.0, 0.0, 0.0, 0.0, 0.0, 0.0, 1.598474815964521E9, 2020-08-26 15:46:55.964
199.0, -50.045555114746094, -54819.23828125, -21280.0, -32693.380859375, 63092.9140625, 31548.033203125, -143214.59375, 187500.0, 0.004000000189989805, -0.010000000707805157, 1.0099999904632568, 192.0, 0.0, 0.0, 0.0, 0.0, 0.0, 0.0, 0.0, 0.0, 0.0, 1.598474815964523E9, 2020-08-26 15:46:55.964
200.0, -54.73942184448242, -69552.8125, -38613.328125, -48343.3125, 43978.1953125, 13971.9189453125, -162237.5, 187500.0, 0.004000000189989805, -0.010000000707805157, 1.0099999904632568, 192.0, 0.0, 0.0, 0.0, 0.0, 0.0, 0.0, 0.0, 0.0, 0.0, 1.598474815964524E9, 2020-08-26 15:46:55.964
201.0, -4.179776191711426, -63861.66015625, -34174.453125, -43485.296875, 47480.98046875, 17327.25, -157493.0, 187500.0, 0.00800000037997961, -0.010000000707805157, 1.0120000839233398, 192.0, 0.0, 64.0, 255.0, 176.0, 31.0, 160.0, 0.0, 0.0, 0.0, 1.598474815964526E9, 2020-08-26 15:46:55.964
202.0, 31.1583309173584, -44284.21484375, -13817.892578125, -24219.478515625, 68839.4140625, 37146.85546875, -135437.3125, 187500.0, 0.00800000037997961, -0.010000000707805157, 1.0120000839233398, 192.0, 0.0, 0.0, 0.0, 0.0, 0.0, 0.0, 0.0, 0.0, 0.0, 1.598474815964528E9, 2020-08-26 15:46:55.964
203.0, 79.75102233886719, -28512.599609375, 3955.655029296875, -7972.21875, 88064.84375, 54787.65625, -115915.984375, 187500.0, 0.00800000037997961, -0.010000000707805157, 1.0120000839233398, 192.0, 0.0, 0.0, 0.0, 0.0, 0.0, 0.0, 0.0, 0.0, 0.0, 1.598474815964529E9, 2020-08-26 15:46:55.964
204.0, 39.71904754638672, -17797.509765625, 17076.708984375, 3582.179931640625, 102920.953125, 68239.1796875, -101186.703125, 187500.0, 0.00800000037997961, -0.010000000707805157, 1.0120000839233398, 192.0, 0.0, 0.0, 0.0, 0.0, 0.0, 0.0, 0.0, 0.0, 0.0, 1.598474815964531E9, 2020-08-26 15:46:55.964
205.0, -104.44969940185547, -20780.7734375, 14968.806640625, 1168.8843994140625, 101982.1328125, 67277.40625, -103324.828125, 187500.0, 0.00800000037997961, -0.010000000707805157, 1.0120000839233398, 192.0, 0.0, 0.0, 0.0, 0.0, 0.0, 0.0, 0.0, 0.0, 0.0, 1.598474815964532E9, 2020-08-26 15:46:55.964
206.0, -113.7480239868164, -37129.46484375, -1868.2928466796875, -14714.197265625, 84117.0546875, 50871.67578125, -121937.140625, 187500.0, 0.00800000037997961, -0.010000000707805157, 1.0120000839233398, 192.0, 0.0, 0.0, 0.0, 0.0, 0.0, 0.0, 0.0, 0.0, 0.0, 1.598474815964534E9, 2020-08-26 15:46:55.964
207.0, -65.06592559814453, -54091.6875, -20480.8359375, -31926.716796875, 63944.40625, 32345.990234375, -142505.015625, 187500.0, 0.00800000037997961, -0.010000000707805157, 1.0120000839233398, 192.0, 0.0, 0.0, 0.0, 0.0, 0.0, 0.0, 0.0, 0.0, 0.0, 1.598474815964536E9, 2020-08-26 15:46:55.964
208.0, -31.001869201660156, -69195.09375, -38135.33984375, -47915.5, 44516.55859375, 14453.93359375, -161845.640625, 187500.0, 0.00800000037997961, -0.010000000707805157, 1.0120000839233398, 192.0, 0.0, 0.0, 0.0, 0.0, 0.0, 0.0, 0.0, 0.0, 0.0, 1.598474815964537E9, 2020-08-26 15:46:55.964
209.0, 2.12341570854187, -64494.9296875, -34741.29296875, -44069.34765625, 46972.90625, 16787.5234375, -158141.421875, 187500.0, 0.00800000037997961, -0.010000000707805157, 1.0120000839233398, 192.0, 0.0, 0.0, 0.0, 0.0, 0.0, 0.0, 0.0, 0.0, 0.0, 1.598474815964539E9, 2020-08-26 15:46:55.964
210.0, 19.64718246459961, -44664.328125, -14175.6103515625, -24580.369140625, 68533.421875, 36807.53125, -135878.953125, 187500.0, 0.00800000037997961, -0.010000000707805157, 1.0120000839233398, 192.0, 0.0, 0.0, 0.0, 0.0, 0.0, 0.0, 0.0, 0.0, 0.0, 1.59847481596454E9, 2020-08-26 15:46:55.964
211.0, 62.62958526611328, -27937.48828125, 4586.37646484375, -7372.3427734375, 88746.1640625, 55409.48046875, -115371.5, 187500.0, 0.006000000052154064, -0.012000000104308128, 1.0140000581741333, 192.0, 0.0, 48.0, 255.0, 160.0, 31.0, 176.0, 0.0, 0.0, 0.0, 1.5984748160248E9, 2020-08-26 15:46:56.024
212.0, 58.87449264526367, -17235.876953125, 17754.638671875, 4201.904296875, 103657.1953125, 68909.171875, -100589.4375, 187500.0, 0.006000000052154064, -0.012000000104308128, 1.0140000581741333, 192.0, 0.0, 0.0, 0.0, 0.0, 0.0, 0.0, 0.0, 0.0, 0.0, 1.598474816024807E9, 2020-08-26 15:46:56.024
213.0, -95.03961181640625, -21386.326171875, 14433.8173828125, 604.6370239257812, 101501.96875, 66764.078125, -103933.640625, 187500.0, 0.006000000052154064, -0.012000000104308128, 1.0140000581741333, 192.0, 0.0, 0.0, 0.0, 0.0, 0.0, 0.0, 0.0, 0.0, 0.0, 1.598474816024811E9, 2020-08-26 15:46:56.024
214.0, -122.7334213256836, -37655.1796875, -2373.12939453125, -15230.947265625, 83655.421875, 50385.8828125, -122522.8515625, 187500.0, 0.006000000052154064, -0.012000000104308128, 1.0140000581741333, 192.0, 0.0, 0.0, 0.0, 0.0, 0.0, 0.0, 0.0, 0.0, 0.0, 1.598474816024814E9, 2020-08-26 15:46:56.024
215.0, -82.23206329345703, -53684.75390625, -20029.732421875, -31507.443359375, 64436.4765625, 32792.19921875, -142146.828125, 187500.0, 0.006000000052154064, -0.012000000104308128, 1.0140000581741333, 192.0, 0.0, 0.0, 0.0, 0.0, 0.0, 0.0, 0.0, 0.0, 0.0, 1.598474816024818E9, 2020-08-26 15:46:56.024
216.0, -19.937755584716797, -68446.265625, -37266.2109375, -47116.0, 45426.96875, 15300.5732421875, -161078.828125, 187500.0, 0.006000000052154064, -0.012000000104308128, 1.0140000581741333, 192.0, 0.0, 0.0, 0.0, 0.0, 0.0, 0.0, 0.0, 0.0, 0.0, 1.598474816024821E9, 2020-08-26 15:46:56.024
217.0, 17.21084213256836, -64999.453125, -35151.24609375, -44530.640625, 46600.58984375, 16383.5595703125, -158650.515625, 187500.0, 0.006000000052154064, -0.012000000104308128, 1.0140000581741333, 192.0, 0.0, 0.0, 0.0, 0.0, 0.0, 0.0, 0.0, 0.0, 0.0, 1.598474816024825E9, 2020-08-26 15:46:56.024
218.0, 14.841557502746582, -45324.77734375, -14799.044921875, -25227.138671875, 67940.359375, 36201.0390625, -136600.765625, 187500.0, 0.006000000052154064, -0.012000000104308128, 1.0140000581741333, 192.0, 0.0, 0.0, 0.0, 0.0, 0.0, 0.0, 0.0, 0.0, 0.0, 1.598474816024829E9, 2020-08-26 15:46:56.024
219.0, 44.72583770751953, -27717.078125, 4850.12744140625, -7136.4423828125, 89040.09375, 55669.9453125, -115212.578125, 187500.0, 0.006000000052154064, -0.012000000104308128, 1.0140000581741333, 192.0, 0.0, 0.0, 0.0, 0.0, 0.0, 0.0, 0.0, 0.0, 0.0, 1.598474816024832E9, 2020-08-26 15:46:56.024
220.0, 62.07079315185547, -16417.466796875, 18686.50390625, 5071.96826171875, 104624.7109375, 69818.7578125, -99768.375, 187500.0, 0.006000000052154064, -0.012000000104308128, 1.0140000581741333, 192.0, 0.0, 0.0, 0.0, 0.0, 0.0, 0.0, 0.0, 0.0, 0.0, 1.598474816024836E9, 2020-08-26 15:46:56.024
221.0, -76.2864990234375, -21753.7890625, 14156.3203125, 284.3812255859375, 101265.2265625, 66499.96875, -104315.96875, 187500.0, 0.010000000707805157, -0.014000000432133675, 1.0120000839233398, 192.0, 0.0, 80.0, 255.0, 144.0, 31.0, 160.0, 0.0, 0.0, 0.0, 1.598474816024839E9, 2020-08-26 15:46:56.024
222.0, -124.02982330322266, -38335.4296875, -3033.735107421875, -15900.740234375, 83034.5390625, 49754.109375, -123284.328125, 187500.0, 0.010000000707805157, -0.014000000432133675, 1.0120000839233398, 192.0, 0.0, 0.0, 0.0, 0.0, 0.0, 0.0, 0.0, 0.0, 0.0, 1.598474816024843E9, 2020-08-26 15:46:56.024
223.0, -99.82288360595703, -53628.6484375, -19962.498046875, -31449.55078125, 64542.6953125, 32872.91015625, -142179.734375, 187500.0, 0.010000000707805157, -0.014000000432133675, 1.0120000839233398, 192.0, 0.0, 0.0, 0.0, 0.0, 0.0, 0.0, 0.0, 0.0, 0.0, 1.598474816024847E9, 2020-08-26 15:46:56.024
224.0, -25.16806411743164, -67576.3359375, -36319.66015625, -46212.85546875, 46418.89453125, 16239.16796875, -160235.78125, 187500.0, 0.010000000707805157, -0.014000000432133675, 1.0120000839233398, 192.0, 0.0, 0.0, 0.0, 0.0, 0.0, 0.0, 0.0, 0.0, 0.0, 1.59847481602485E9, 2020-08-26 15:46:56.024
225.0, 39.137901306152344, -65141.05078125, -35205.359375, -44619.9375, 46595.49609375, 16343.2822265625, -158801.46875, 187500.0, 0.010000000707805157, -0.014000000432133675, 1.0120000839233398, 192.0, 0.0, 0.0, 0.0, 0.0, 0.0, 0.0, 0.0, 0.0, 0.0, 1.598474816024854E9, 2020-08-26 15:46:56.024
226.0, 16.674400329589844, -46009.76953125, -15453.9736328125, -25889.7109375, 67324.859375, 35568.53125, -137352.96875, 187500.0, 0.010000000707805157, -0.014000000432133675, 1.0120000839233398, 192.0, 0.0, 0.0, 0.0, 0.0, 0.0, 0.0, 0.0, 0.0, 0.0, 1.598474816084205E9, 2020-08-26 15:46:56.084
227.0, 28.118494033813477, -27838.560546875, 4741.29638671875, -7253.25244140625, 88957.234375, 55566.12109375, -115427.6875, 187500.0, 0.010000000707805157, -0.014000000432133675, 1.0120000839233398, 192.0, 0.0, 0.0, 0.0, 0.0, 0.0, 0.0, 0.0, 0.0, 0.0, 1.598474816084215E9, 2020-08-26 15:46:56.084
228.0, 50.91727066040039, -15648.8134765625, 19525.521484375, 5870.2607421875, 105492.3203125, 70638.015625, -99035.6796875, 187500.0, 0.010000000707805157, -0.014000000432133675, 1.0120000839233398, 192.0, 0.0, 0.0, 0.0, 0.0, 0.0, 0.0, 0.0, 0.0, 0.0, 1.59847481608422E9, 2020-08-26 15:46:56.084
229.0, -52.37013626098633, -21705.48828125, 14305.49609375, 387.758056640625, 101447.9453125, 66638.2109375, -104266.90625, 187500.0, 0.010000000707805157, -0.014000000432133675, 1.0120000839233398, 192.0, 0.0, 0.0, 0.0, 0.0, 0.0, 0.0, 0.0, 0.0, 0.0, 1.598474816084224E9, 2020-08-26 15:46:56.084
230.0, -119.85005187988281, -39011.7734375, -3661.014404296875, -16545.4765625, 82431.578125, 49129.53515625, -124016.7734375, 187500.0, 0.010000000707805157, -0.014000000432133675, 1.0120000839233398, 192.0, 0.0, 0.0, 0.0, 0.0, 0.0, 0.0, 0.0, 0.0, 0.0, 1.598474816084228E9, 2020-08-26 15:46:56.084
231.0, -114.23976135253906, -53919.53515625, -20236.62109375, -31730.244140625, 64284.41796875, 32593.291015625, -142562.109375, 187500.0, 0.010000000707805157, -0.014000000432133675, 1.0140000581741333, 192.0, 0.0, 80.0, 255.0, 144.0, 31.0, 176.0, 0.0, 0.0, 0.0, 1.598474816084233E9, 2020-08-26 15:46:56.084
232.0, -40.61311721801758, -66891.859375, -35569.4921875, -45495.96875, 47185.53515625, 16957.619140625, -159602.9375, 187500.0, 0.010000000707805157, -0.014000000432133675, 1.0140000581741333, 192.0, 0.0, 0.0, 0.0, 0.0, 0.0, 0.0, 0.0, 0.0, 0.0, 1.598474816084238E9, 2020-08-26 15:46:56.084
233.0, 62.69664001464844, -64805.4609375, -34754.390625, -44219.90625, 47069.53125, 16768.232421875, -158469.421875, 187500.0, 0.010000000707805157, -0.014000000432133675, 1.0140000581741333, 192.0, 0.0, 0.0, 0.0, 0.0, 0.0, 0.0, 0.0, 0.0, 0.0, 1.598474816084242E9, 2020-08-26 15:46:56.084
234.0, 23.044647216796875, -46673.14453125, -16059.794921875, -26513.68359375, 66741.296875, 34965.03515625, -138071.65625, 187500.0, 0.010000000707805157, -0.014000000432133675, 1.0140000581741333, 192.0, 0.0, 0.0, 0.0, 0.0, 0.0, 0.0, 0.0, 0.0, 0.0, 1.598474816084247E9, 2020-08-26 15:46:56.084
235.0, 16.830862045288086, -28263.9140625, 4326.4482421875, -7669.419921875, 88565.1171875, 55154.11328125, -115951.8125, 187500.0, 0.010000000707805157, -0.014000000432133675, 1.0140000581741333, 192.0, 0.0, 0.0, 0.0, 0.0, 0.0, 0.0, 0.0, 0.0, 0.0, 1.598474816084251E9, 2020-08-26 15:46:56.084
236.0, 34.712257385253906, -15146.14453125, 20067.26171875, 6390.52001953125, 106061.9296875, 71162.03125, -98601.453125, 187500.0, 0.010000000707805157, -0.014000000432133675, 1.0140000581741333, 192.0, 0.0, 0.0, 0.0, 0.0, 0.0, 0.0, 0.0, 0.0, 0.0, 1.598474816084254E9, 2020-08-26 15:46:56.084
237.0, -33.214691162109375, -21263.212890625, 14835.27734375, 880.0999145507812, 102017.5859375, 67157.53125, -103830.46875, 187500.0, 0.010000000707805157, -0.014000000432133675, 1.0140000581741333, 192.0, 0.0, 0.0, 0.0, 0.0, 0.0, 0.0, 0.0, 0.0, 0.0, 1.598474816084258E9, 2020-08-26 15:46:56.084
238.0, -110.35055541992188, -39730.87109375, -4350.52099609375, -17237.6875, 81782.4609375, 48461.6875, -124789.765625, 187500.0, 0.010000000707805157, -0.014000000432133675, 1.0140000581741333, 192.0, 0.0, 0.0, 0.0, 0.0, 0.0, 0.0, 0.0, 0.0, 0.0, 1.598474816084262E9, 2020-08-26 15:46:56.084
239.0, -122.75577545166016, -54519.97265625, -20862.06640625, -32337.294921875, 63692.79296875, 31985.994140625, -143275.859375, 187500.0, 0.010000000707805157, -0.014000000432133675, 1.0140000581741333, 192.0, 0.0, 0.0, 0.0, 0.0, 0.0, 0.0, 0.0, 0.0, 0.0, 1.598474816084265E9, 2020-08-26 15:46:56.084
240.0, -58.27099609375, -66564.140625, -35246.1953125, -45171.890625, 47541.53125, 17275.505859375, -159372.25, 187500.0, 0.010000000707805157, -0.014000000432133675, 1.0140000581741333, 192.0, 0.0, 0.0, 0.0, 0.0, 0.0, 0.0, 0.0, 0.0, 0.0, 1.598474816084268E9, 2020-08-26 15:46:56.084
241.0, 72.66551971435547, -64107.86328125, -33991.94921875, -43488.0234375, 47874.10546875, 17513.59765625, -157799.046875, 187500.0, 0.014000000432133675, -0.014000000432133675, 1.0120000839233398, 192.0, 0.0, 112.0, 255.0, 144.0, 31.0, 160.0, 0.0, 0.0, 0.0, 1.598474816144023E9, 2020-08-26 15:46:56.144
242.0, 37.72974395751953, -47216.24609375, -16566.62109375, -27023.5703125, 66279.421875, 34471.91015625, -138657.96875, 187500.0, 0.014000000432133675, -0.014000000432133675, 1.0120000839233398, 192.0, 0.0, 0.0, 0.0, 0.0, 0.0, 0.0, 0.0, 0.0, 0.0, 1.598474816144031E9, 2020-08-26 15:46:56.144
243.0, 12.427569389343262, -28965.423828125, 3601.31298828125, -8367.912109375, 87878.7890625, 54446.1640625, -116753.90625, 187500.0, 0.014000000432133675, -0.014000000432133675, 1.0120000839233398, 192.0, 0.0, 0.0, 0.0, 0.0, 0.0, 0.0, 0.0, 0.0, 0.0, 1.598474816144033E9, 2020-08-26 15:46:56.144
244.0, 17.076732635498047, -14992.9013671875, 20201.08203125, 6541.8857421875, 106232.4765625, 71289.546875, -98552.703125, 187500.0, 0.014000000432133675, -0.014000000432133675, 1.0120000839233398, 192.0, 0.0, 0.0, 0.0, 0.0, 0.0, 0.0, 0.0, 0.0, 0.0, 1.598474816144035E9, 2020-08-26 15:46:56.144
245.0, -29.280784606933594, -20603.814453125, 15541.8603515625, 1569.8299560546875, 102765.5859375, 67841.2265625, -103207.1875, 187500.0, 0.014000000432133675, -0.014000000432133675, 1.0120000839233398, 192.0, 0.0, 0.0, 0.0, 0.0, 0.0, 0.0, 0.0, 0.0, 0.0, 1.598474816144036E9, 2020-08-26 15:46:56.144
246.0, -91.84331512451172, -40224.2421875, -4819.30419921875, -17703.2734375, 81357.421875, 47998.4921875, -125339.7734375, 187500.0, 0.014000000432133675, -0.014000000432133675, 1.0120000839233398, 192.0, 0.0, 0.0, 0.0, 0.0, 0.0, 0.0, 0.0, 0.0, 0.0, 1.598474816144038E9, 2020-08-26 15:46:56.144
247.0, -123.9180679321289, -55286.32421875, -21667.154296875, -33110.0625, 62924.76171875, 31196.5078125, -144166.90625, 187500.0, 0.014000000432133675, -0.014000000432133675, 1.0120000839233398, 192.0, 0.0, 0.0, 0.0, 0.0, 0.0, 0.0, 0.0, 0.0, 0.0, 1.59847481614404E9, 2020-08-26 15:46:56.144
248.0, -75.57124328613281, -66602.296875, -35330.484375, -45224.88671875, 47488.8046875, 17188.580078125, -159545.03125, 187500.0, 0.014000000432133675, -0.014000000432133675, 1.0120000839233398, 192.0, 0.0, 0.0, 0.0, 0.0, 0.0, 0.0, 0.0, 0.0, 0.0, 1.598474816144041E9, 2020-08-26 15:46:56.144
249.0, 66.9658203125, -63331.4765625, -33198.3515625, -42697.12890625, 48700.6953125, 18284.0625, -157097.171875, 187500.0, 0.014000000432133675, -0.014000000432133675, 1.0120000839233398, 192.0, 0.0, 0.0, 0.0, 0.0, 0.0, 0.0, 0.0, 0.0, 0.0, 1.598474816144043E9, 2020-08-26 15:46:56.144
250.0, 59.612098693847656, -47426.7578125, -16751.4921875, -27206.140625, 66134.71875, 34292.2890625, -138927.203125, 187500.0, 0.014000000432133675, -0.014000000432133675, 1.0120000839233398, 192.0, 0.0, 0.0, 0.0, 0.0, 0.0, 0.0, 0.0, 0.0, 0.0, 1.598474816144045E9, 2020-08-26 15:46:56.144
251.0, 14.752150535583496, -29730.58984375, 2801.47802734375, -9134.3525390625, 87115.3203125, 53672.796875, -117631.7734375, 187500.0, 0.010000000707805157, -0.012000000104308128, 1.0120000839233398, 192.0, 0.0, 80.0, 255.0, 160.0, 31.0, 160.0, 0.0, 0.0, 0.0, 1.598474816144046E9, 2020-08-26 15:46:56.144
252.0, 1.0728837251663208, -15221.26953125, 19916.990234375, 6295.16748046875, 105974.3984375, 71022.796875, -98912.6328125, 187500.0, 0.010000000707805157, -0.012000000104308128, 1.0120000839233398, 192.0, 0.0, 0.0, 0.0, 0.0, 0.0, 0.0, 0.0, 0.0, 0.0, 1.598474816144048E9, 2020-08-26 15:46:56.144
253.0, -41.03779983520508, -19930.53515625, 16214.5810546875, 2245.36669921875, 103462.21875, 68509.8359375, -102606.4375, 187500.0, 0.010000000707805157, -0.012000000104308128, 1.0120000839233398, 192.0, 0.0, 0.0, 0.0, 0.0, 0.0, 0.0, 0.0, 0.0, 0.0, 1.59847481614405E9, 2020-08-26 15:46:56.144
254.0, -67.97164916992188, -40225.2265625, -4793.89013671875, -17679.021484375, 81413.0546875, 48038.61328125, -125385.3671875, 187500.0, 0.010000000707805157, -0.012000000104308128, 1.0120000839233398, 192.0, 0.0, 0.0, 0.0, 0.0, 0.0, 0.0, 0.0, 0.0, 0.0, 1.598474816144052E9, 2020-08-26 15:46:56.144
255.0, -120.02886199951172, -56056.875, -22477.0703125, -33882.984375, 62144.375, 30424.8359375, -145043.578125, 187500.0, 0.010000000707805157, -0.012000000104308128, 1.0120000839233398, 192.0, 0.0, 0.0, 0.0, 0.0, 0.0, 0.0, 0.0, 0.0, 0.0, 1.598474816144054E9, 2020-08-26 15:46:56.144
0.0, -89.27286529541016, -66976.1953125, -35784.8515625, -45630.52734375, 47062.98046875, 16768.0546875, -160068.234375, 187500.0, 0.010000000707805157, -0.012000000104308128, 1.0120000839233398, 192.0, 0.0, 0.0, 0.0, 0.0, 0.0, 0.0, 0.0, 0.0, 0.0, 1.598474816204288E9, 2020-08-26 15:46:56.204
1.0, 51.7219352722168, -62728.3359375, -32629.58984375, -42107.62109375, 49300.1015625, 18861.25, -156605.5, 187500.0, 0.010000000707805157, -0.012000000104308128, 1.0120000839233398, 192.0, 0.0, 0.0, 0.0, 0.0, 0.0, 0.0, 0.0, 0.0, 0.0, 1.598474816204294E9, 2020-08-26 15:46:56.204
2.0, 82.72380065917969, -47150.109375, -16461.25390625, -26910.29296875, 66454.21875, 34595.3359375, -138715.140625, 187500.0, 0.010000000707805157, -0.012000000104308128, 1.0120000839233398, 192.0, 0.0, 0.0, 0.0, 0.0, 0.0, 0.0, 0.0, 0.0, 0.0, 1.598474816204295E9, 2020-08-26 15:46:56.204
3.0, 20.921232223510742, -30445.2421875, 2041.787109375, -9856.560546875, 86378.3125, 52951.03515625, -118465.7421875, 187500.0, 0.010000000707805157, -0.012000000104308128, 1.0120000839233398, 192.0, 0.0, 0.0, 0.0, 0.0, 0.0, 0.0, 0.0, 0.0, 0.0, 1.598474816204297E9, 2020-08-26 15:46:56.204
4.0, -10.14769172668457, -15698.1435546875, 19352.609375, 5782.10546875, 105426.7578125, 70491.390625, -99558.265625, 187500.0, 0.010000000707805157, -0.012000000104308128, 1.0120000839233398, 192.0, 0.0, 0.0, 0.0, 0.0, 0.0, 0.0, 0.0, 0.0, 0.0, 1.598474816204299E9, 2020-08-26 15:46:56.204
5.0, -57.71220397949219, -19468.994140625, 16625.8984375, 2685.785400390625, 103887.640625, 68926.5, -102288.7109375, 187500.0, 0.012000000104308128, -0.012000000104308128, 1.0140000581741333, 192.0, 0.0, 96.0, 255.0, 160.0, 31.0, 176.0, 0.0, 0.0, 0.0, 1.5984748162043E9, 2020-08-26 15:46:56.204
6.0, -50.15731430053711, -39717.9296875, -4270.54638671875, -17157.33203125, 81950.7890625, 48557.890625, -124959.3671875, 187500.0, 0.012000000104308128, -0.012000000104308128, 1.0140000581741333, 192.0, 0.0, 0.0, 0.0, 0.0, 0.0, 0.0, 0.0, 0.0, 0.0, 1.598474816204302E9, 2020-08-26 15:46:56.204
7.0, -109.5458984375, -56714.5546875, -23160.228515625, -34545.15625, 61470.8046875, 29766.107421875, -145817.015625, 187500.0, 0.012000000104308128, -0.012000000104308128, 1.0140000581741333, 192.0, 0.0, 0.0, 0.0, 0.0, 0.0, 0.0, 0.0, 0.0, 0.0, 1.598474816204303E9, 2020-08-26 15:46:56.204
8.0, -97.61006164550781, -67574.484375, -36461.171875, -46265.0234375, 46386.28125, 16117.0595703125, -160833.484375, 187500.0, 0.012000000104308128, -0.012000000104308128, 1.0140000581741333, 192.0, 0.0, 0.0, 0.0, 0.0, 0.0, 0.0, 0.0, 0.0, 0.0, 1.598474816204305E9, 2020-08-26 15:46:56.204
9.0, 35.11458969116211, -62418.44921875, -32377.9765625, -41831.33203125, 49548.18359375, 19112.9765625, -156450.671875, 187500.0, 0.012000000104308128, -0.012000000104308128, 1.0140000581741333, 192.0, 0.0, 0.0, 0.0, 0.0, 0.0, 0.0, 0.0, 0.0, 0.0, 1.598474816204306E9, 2020-08-26 15:46:56.204
10.0, 93.2291259765625, -46467.5078125, -15765.466796875, -26222.865234375, 67156.015625, 35277.66796875, -138119.71875, 187500.0, 0.012000000104308128, -0.012000000104308128, 1.0140000581741333, 192.0, 0.0, 0.0, 0.0, 0.0, 0.0, 0.0, 0.0, 0.0, 0.0, 1.598474816204308E9, 2020-08-26 15:46:56.204
11.0, 35.852195739746094, -30998.359375, 1477.6290283203125, -10405.2958984375, 85823.8359375, 52406.79296875, -119122.0078125, 187500.0, 0.012000000104308128, -0.012000000104308128, 1.0140000581741333, 192.0, 0.0, 0.0, 0.0, 0.0, 0.0, 0.0, 0.0, 0.0, 0.0, 1.59847481620431E9, 2020-08-26 15:46:56.204
12.0, -15.176834106445312, -16360.0009765625, 18622.130859375, 5096.0634765625, 104703.234375, 69787.734375, -100377.90625, 187500.0, 0.012000000104308128, -0.012000000104308128, 1.0140000581741333, 192.0, 0.0, 0.0, 0.0, 0.0, 0.0, 0.0, 0.0, 0.0, 0.0, 1.598474816204311E9, 2020-08-26 15:46:56.204
13.0, -75.70535278320312, -19169.32421875, 16870.828125, 2962.74609375, 104141.84375, 69172.0546875, -102141.03125, 187500.0, 0.012000000104308128, -0.012000000104308128, 1.0140000581741333, 192.0, 0.0, 0.0, 0.0, 0.0, 0.0, 0.0, 0.0, 0.0, 0.0, 1.598474816204313E9, 2020-08-26 15:46:56.204
14.0, -47.92213821411133, -38854.3046875, -3384.41162109375, -16274.8857421875, 82856.3515625, 49427.39453125, -124164.71875, 187500.0, 0.012000000104308128, -0.012000000104308128, 1.0140000581741333, 192.0, 0.0, 0.0, 0.0, 0.0, 0.0, 0.0, 0.0, 0.0, 0.0, 1.598474816204315E9, 2020-08-26 15:46:56.204
15.0, -90.32339477539062, -57062.01171875, -23488.12890625, -34863.15625, 61162.10546875, 29447.3046875, -146229.171875, 187500.0, 0.012000000104308128, -0.012000000104308128, 1.0140000581741333, 192.0, 0.0, 0.0, 0.0, 0.0, 0.0, 0.0, 0.0, 0.0, 0.0, 1.598474816264494E9, 2020-08-26 15:46:56.264
16.0, -98.66059875488281, -68279.5703125, -37202.7578125, -46969.37109375, 45659.08984375, 15393.3330078125, -161657.6875, 187500.0, 0.00800000037997961, -0.020000001415610313, 1.0099999904632568, 192.0, 0.0, 64.0, 255.0, 96.0, 31.0, 144.0, 0.0, 0.0, 0.0, 1.598474816264501E9, 2020-08-26 15:46:56.264
17.0, 17.747283935546875, -62393.5078125, -32394.650390625, -41811.86328125, 49544.7421875, 19097.75390625, -156549.984375, 187500.0, 0.00800000037997961, -0.020000001415610313, 1.0099999904632568, 192.0, 0.0, 0.0, 0.0, 0.0, 0.0, 0.0, 0.0, 0.0, 0.0, 1.598474816264502E9, 2020-08-26 15:46:56.264
18.0, 87.41767120361328, -45632.0234375, -14903.3154296875, -25363.751953125, 68038.4375, 36118.0703125, -137342.4375, 187500.0, 0.00800000037997961, -0.020000001415610313, 1.0099999904632568, 192.0, 0.0, 0.0, 0.0, 0.0, 0.0, 0.0, 0.0, 0.0, 0.0, 1.598474816264504E9, 2020-08-26 15:46:56.264
19.0, 58.06983184814453, -31146.349609375, 1366.3397216796875, -10514.9306640625, 85739.296875, 52296.57421875, -119306.4140625, 187500.0, 0.00800000037997961, -0.020000001415610313, 1.0099999904632568, 192.0, 0.0, 0.0, 0.0, 0.0, 0.0, 0.0, 0.0, 0.0, 0.0, 1.598474816264506E9, 2020-08-26 15:46:56.264
20.0, -14.148653984069824, -17025.033203125, 17937.05078125, 4440.68798828125, 104035.8359375, 69117.625, -101136.09375, 187500.0, 0.00800000037997961, -0.020000001415610313, 1.0099999904632568, 192.0, 0.0, 0.0, 0.0, 0.0, 0.0, 0.0, 0.0, 0.0, 0.0, 1.598474816264507E9, 2020-08-26 15:46:56.264
21.0, -92.4244613647461, -19198.3828125, 16805.583984375, 2929.799560546875, 104090.015625, 69109.046875, -102293.625, 187500.0, 0.00800000037997961, -0.020000001415610313, 1.0099999904632568, 192.0, 0.0, 0.0, 0.0, 0.0, 0.0, 0.0, 0.0, 0.0, 0.0, 1.598474816264509E9, 2020-08-26 15:46:56.264
22.0, -58.78508758544922, -38019.109375, -2521.097900390625, -15413.0693359375, 83737.3203125, 50274.28125, -123388.0859375, 187500.0, 0.00800000037997961, -0.020000001415610313, 1.0099999904632568, 192.0, 0.0, 0.0, 0.0, 0.0, 0.0, 0.0, 0.0, 0.0, 0.0, 1.59847481626451E9, 2020-08-26 15:46:56.264
23.0, -66.0717544555664, -56944.2421875, -23309.60546875, -34692.5, 61369.59375, 29631.1484375, -146127.515625, 187500.0, 0.00800000037997961, -0.020000001415610313, 1.0099999904632568, 192.0, 0.0, 0.0, 0.0, 0.0, 0.0, 0.0, 0.0, 0.0, 0.0, 1.598474816264512E9, 2020-08-26 15:46:56.264
24.0, -94.23495483398438, -68960.6484375, -37882.359375, -47625.91015625, 45009.01171875, 14745.5791015625, -162406.984375, 187500.0, 0.00800000037997961, -0.020000001415610313, 1.0099999904632568, 192.0, 0.0, 0.0, 0.0, 0.0, 0.0, 0.0, 0.0, 0.0, 0.0, 1.598474816264513E9, 2020-08-26 15:46:56.264
25.0, 3.6656858921051025, -62680.390625, -32711.12890625, -42100.828125, 49252.73828125, 18804.701171875, -156940.90625, 187500.0, 0.00800000037997961, -0.020000001415610313, 1.0099999904632568, 192.0, 0.0, 0.0, 0.0, 0.0, 0.0, 0.0, 0.0, 0.0, 0.0, 1.598474816264515E9, 2020-08-26 15:46:56.264
26.0, 72.06201934814453, -44948.484375, -14198.6103515625, -24663.048828125, 68768.8046875, 36816.5625, -136724.203125, 187500.0, 0.012000000104308128, -0.018000001087784767, 1.0120000839233398, 192.0, 0.0, 96.0, 255.0, 112.0, 31.0, 160.0, 0.0, 0.0, 0.0, 1.598474816264517E9, 2020-08-26 15:46:56.264
27.0, 81.20388793945312, -30786.642578125, 1801.39404296875, -10103.8154296875, 86207.546875, 52729.640625, -118959.2421875, 187500.0, 0.012000000104308128, -0.018000001087784767, 1.0120000839233398, 192.0, 0.0, 0.0, 0.0, 0.0, 0.0, 0.0, 0.0, 0.0, 0.0, 1.598474816264518E9, 2020-08-26 15:46:56.264
28.0, -7.621944427490234, -17674.10546875, 17307.044921875, 3820.78466796875, 103440.984375, 68516.8984375, -101845.921875, 187500.0, 0.012000000104308128, -0.018000001087784767, 1.0120000839233398, 192.0, 0.0, 0.0, 0.0, 0.0, 0.0, 0.0, 0.0, 0.0, 0.0, 1.59847481626452E9, 2020-08-26 15:46:56.264
29.0, -103.91325378417969, -19601.0703125, 16381.32421875, 2528.33984375, 103697.140625, 68710.671875, -102799.046875, 187500.0, 0.012000000104308128, -0.018000001087784767, 1.0120000839233398, 192.0, 0.0, 0.0, 0.0, 0.0, 0.0, 0.0, 0.0, 0.0, 0.0, 1.598474816264521E9, 2020-08-26 15:46:56.264
30.0, -75.92887115478516, -37466.86328125, -1947.1497802734375, -14841.3564453125, 84343.7421875, 50847.53515625, -122898.8515625, 187500.0, 0.012000000104308128, -0.018000001087784767, 1.0120000839233398, 192.0, 0.0, 0.0, 0.0, 0.0, 0.0, 0.0, 0.0, 0.0, 0.0, 1.5984748163248E9, 2020-08-26 15:46:56.324
31.0, -48.43622970581055, -56354.6484375, -22629.306640625, -34042.17578125, 62085.8359375, 30303.689453125, -145531.5625, 187500.0, 0.012000000104308128, -0.018000001087784767, 1.0120000839233398, 192.0, 0.0, 0.0, 0.0, 0.0, 0.0, 0.0, 0.0, 0.0, 0.0, 1.598474816324807E9, 2020-08-26 15:46:56.324
32.0, -83.6625747680664, -69564.078125, -38430.359375, -48178.265625, 44489.671875, 14215.396484375, -163033.21875, 187500.0, 0.012000000104308128, -0.018000001087784767, 1.0120000839233398, 192.0, 0.0, 0.0, 0.0, 0.0, 0.0, 0.0, 0.0, 0.0, 0.0, 1.59847481632481E9, 2020-08-26 15:46:56.324
33.0, -5.185604572296143, -63246.80859375, -33273.25390625, -42648.17578125, 48710.55078125, 18263.05078125, -157576.90625, 187500.0, 0.012000000104308128, -0.018000001087784767, 1.0120000839233398, 192.0, 0.0, 0.0, 0.0, 0.0, 0.0, 0.0, 0.0, 0.0, 0.0, 1.598474816324812E9, 2020-08-26 15:46:56.324
34.0, 54.51590347290039, -44591.88671875, -13816.931640625, -24286.599609375, 69168.5625, 37197.68359375, -136419.671875, 187500.0, 0.012000000104308128, -0.018000001087784767, 1.0120000839233398, 192.0, 0.0, 0.0, 0.0, 0.0, 0.0, 0.0, 0.0, 0.0, 0.0, 1.598474816324815E9, 2020-08-26 15:46:56.324
35.0, 90.61396789550781, -30039.537109375, 2645.462890625, -9296.291015625, 87073.046875, 53555.73828125, -118196.734375, 187500.0, 0.012000000104308128, -0.018000001087784767, 1.0120000839233398, 192.0, 0.0, 0.0, 0.0, 0.0, 0.0, 0.0, 0.0, 0.0, 0.0, 1.598474816324818E9, 2020-08-26 15:46:56.324
36.0, 7.152557849884033, -18141.166015625, 16912.849609375, 3409.60205078125, 103066.0390625, 68131.734375, -102320.0, 187500.0, 0.00800000037997961, -0.02200000174343586, 1.0120000839233398, 192.0, 0.0, 64.0, 255.0, 80.0, 31.0, 160.0, 0.0, 0.0, 0.0, 1.598474816324821E9, 2020-08-26 15:46:56.324
37.0, -108.54006958007812, -20214.89453125, 15791.2607421875, 1941.472412109375, 103116.6640625, 68131.0859375, -103475.046875, 187500.0, 0.00800000037997961, -0.02200000174343586, 1.0120000839233398, 192.0, 0.0, 0.0, 0.0, 0.0, 0.0, 0.0, 0.0, 0.0, 0.0, 1.598474816324824E9, 2020-08-26 15:46:56.324
38.0, -93.51969909667969, -37233.2421875, -1685.947265625, -14589.228515625, 84611.1640625, 51096.17578125, -122727.3203125, 187500.0, 0.00800000037997961, -0.02200000174343586, 1.0120000839233398, 192.0, 0.0, 0.0, 0.0, 0.0, 0.0, 0.0, 0.0, 0.0, 0.0, 1.598474816324826E9, 2020-08-26 15:46:56.324
39.0, -46.625736236572266, -55481.87890625, -21660.046875, -33119.8984375, 63067.09765625, 31243.244140625, -144652.34375, 187500.0, 0.00800000037997961, -0.02200000174343586, 1.0120000839233398, 192.0, 0.0, 0.0, 0.0, 0.0, 0.0, 0.0, 0.0, 0.0, 0.0, 1.598474816324829E9, 2020-08-26 15:46:56.324
40.0, -64.19420623779297, -69868.0625, -38649.80859375, -48430.6640625, 44285.66796875, 13995.701171875, -163333.984375, 187500.0, 0.00800000037997961, -0.02200000174343586, 1.0120000839233398, 192.0, 0.0, 0.0, 0.0, 0.0, 0.0, 0.0, 0.0, 0.0, 0.0, 1.598474816324832E9, 2020-08-26 15:46:56.324
41.0, -5.252659797668457, -63924.2890625, -33930.125, -43311.12890625, 48065.2578125, 17617.48828125, -158312.453125, 187500.0, 0.00800000037997961, -0.02200000174343586, 1.0120000839233398, 192.0, 0.0, 0.0, 0.0, 0.0, 0.0, 0.0, 0.0, 0.0, 0.0, 1.598474816324835E9, 2020-08-26 15:46:56.324
42.0, 37.32741165161133, -44540.4296875, -13757.1181640625, -24234.87890625, 69236.6015625, 37253.046875, -136439.765625, 187500.0, 0.00800000037997961, -0.02200000174343586, 1.0120000839233398, 192.0, 0.0, 0.0, 0.0, 0.0, 0.0, 0.0, 0.0, 0.0, 0.0, 1.598474816324838E9, 2020-08-26 15:46:56.324
43.0, 85.1377944946289, -29149.556640625, 3612.064208984375, -8378.484375, 88051.140625, 54497.08203125, -117316.8828125, 187500.0, 0.00800000037997961, -0.02200000174343586, 1.0120000839233398, 192.0, 0.0, 0.0, 0.0, 0.0, 0.0, 0.0, 0.0, 0.0, 0.0, 1.59847481632484E9, 2020-08-26 15:46:56.324
44.0, 29.727819442749023, -18214.525390625, 16931.111328125, 3381.41650390625, 103101.5078125, 68148.09375, -102384.8203125, 187500.0, 0.00800000037997961, -0.02200000174343586, 1.0120000839233398, 192.0, 0.0, 0.0, 0.0, 0.0, 0.0, 0.0, 0.0, 0.0, 0.0, 1.598474816324843E9, 2020-08-26 15:46:56.324
45.0, -106.03667449951172, -20844.96875, 15191.0048828125, 1323.5137939453125, 102529.125, 67546.65625, -104155.6796875, 187500.0, 0.00800000037997961, -0.02200000174343586, 1.0120000839233398, 192.0, 0.0, 0.0, 0.0, 0.0, 0.0, 0.0, 0.0, 0.0, 0.0, 1.59847481638406E9, 2020-08-26 15:46:56.384
46.0, -109.43413543701172, -37337.22265625, -1778.908203125, -14696.919921875, 84525.21875, 51007.484375, -122903.1875, 187500.0, 0.006000000052154064, -0.020000001415610313, 1.0080000162124634, 192.0, 0.0, 48.0, 255.0, 96.0, 31.0, 128.0, 0.0, 0.0, 0.0, 1.598474816384067E9, 2020-08-26 15:46:56.384
47.0, -58.47216033935547, -54659.421875, -20765.59765625, -32272.140625, 63971.25, 32116.259765625, -143847.53125, 187500.0, 0.006000000052154064, -0.020000001415610313, 1.0080000162124634, 192.0, 0.0, 0.0, 0.0, 0.0, 0.0, 0.0, 0.0, 0.0, 0.0, 1.59847481638407E9, 2020-08-26 15:46:56.384
48.0, -39.92021560668945, -69717.859375, -38397.078125, -48229.609375, 44557.62109375, 14245.5263671875, -163167.296875, 187500.0, 0.006000000052154064, -0.020000001415610313, 1.0080000162124634, 192.0, 0.0, 0.0, 0.0, 0.0, 0.0, 0.0, 0.0, 0.0, 0.0, 1.598474816384084E9, 2020-08-26 15:46:56.384
49.0, -0.9387732148170471, -64578.25390625, -34537.9140625, -43936.28515625, 47472.375, 17026.888671875, -159000.875, 187500.0, 0.006000000052154064, -0.020000001415610313, 1.0080000162124634, 192.0, 0.0, 0.0, 0.0, 0.0, 0.0, 0.0, 0.0, 0.0, 0.0, 1.598474816384086E9, 2020-08-26 15:46:56.384
50.0, 23.491682052612305, -44826.2421875, -14027.328125, -24509.134765625, 68976.3828125, 36989.96875, -136796.765625, 187500.0, 0.006000000052154064, -0.020000001415610313, 1.0080000162124634, 192.0, 0.0, 0.0, 0.0, 0.0, 0.0, 0.0, 0.0, 0.0, 0.0, 1.598474816384088E9, 2020-08-26 15:46:56.384
51.0, 69.08924102783203, -28456.787109375, 4365.6533203125, -7654.376953125, 88820.8671875, 55231.47265625, -116657.5703125, 187500.0, 0.006000000052154064, -0.020000001415610313, 1.0080000162124634, 192.0, 0.0, 0.0, 0.0, 0.0, 0.0, 0.0, 0.0, 0.0, 0.0, 1.59847481638409E9, 2020-08-26 15:46:56.384
52.0, 52.25837707519531, -17830.56640625, 17424.16796875, 3825.9033203125, 103621.546875, 68623.875, -101985.125, 187500.0, 0.006000000052154064, -0.020000001415610313, 1.0080000162124634, 192.0, 0.0, 0.0, 0.0, 0.0, 0.0, 0.0, 0.0, 0.0, 0.0, 1.598474816384092E9, 2020-08-26 15:46:56.384
53.0, -99.66642761230469, -21468.08984375, 14622.935546875, 738.0098876953125, 101987.515625, 66988.0859375, -104808.0859375, 187500.0, 0.006000000052154064, -0.020000001415610313, 1.0080000162124634, 192.0, 0.0, 0.0, 0.0, 0.0, 0.0, 0.0, 0.0, 0.0, 0.0, 1.598474816384094E9, 2020-08-26 15:46:56.384
54.0, -119.85005187988281, -37728.4921875, -2158.351318359375, -15078.1953125, 84167.125, 50635.1484375, -123367.5625, 187500.0, 0.006000000052154064, -0.020000001415610313, 1.0080000162124634, 192.0, 0.0, 0.0, 0.0, 0.0, 0.0, 0.0, 0.0, 0.0, 0.0, 1.598474816384096E9, 2020-08-26 15:46:56.384
55.0, -75.19126892089844, -54124.94921875, -20189.79296875, -31720.185546875, 64573.16015625, 32677.130859375, -143359.375, 187500.0, 0.006000000052154064, -0.020000001415610313, 1.0080000162124634, 192.0, 0.0, 0.0, 0.0, 0.0, 0.0, 0.0, 0.0, 0.0, 0.0, 1.598474816384098E9, 2020-08-26 15:46:56.384
56.0, -22.776426315307617, -69106.15625, -37679.83203125, -47562.4765625, 45309.35546875, 14941.044921875, -162539.3125, 187500.0, 0.006000000052154064, -0.01600000075995922, 1.002000093460083, 192.0, 0.0, 48.0, 255.0, 128.0, 31.0, 80.0, 0.0, 0.0, 0.0, 1.5984748163841E9, 2020-08-26 15:46:56.384
57.0, 9.298325538635254, -65146.19140625, -35041.765625, -44459.31640625, 47002.7421875, 16534.099609375, -159588.453125, 187500.0, 0.006000000052154064, -0.01600000075995922, 1.002000093460083, 192.0, 0.0, 0.0, 0.0, 0.0, 0.0, 0.0, 0.0, 0.0, 0.0, 1.598474816384102E9, 2020-08-26 15:46:56.384
58.0, 15.10977840423584, -45359.3984375, -14546.7607421875, -25029.05859375, 68482.90625, 36485.265625, -137397.546875, 187500.0, 0.006000000052154064, -0.01600000075995922, 1.002000093460083, 192.0, 0.0, 0.0, 0.0, 0.0, 0.0, 0.0, 0.0, 0.0, 0.0, 1.598474816384104E9, 2020-08-26 15:46:56.384
59.0, 51.83369445800781, -28096.7890625, 4759.33447265625, -7281.3486328125, 89236.0546875, 55616.2578125, -116352.4921875, 187500.0, 0.006000000052154064, -0.01600000075995922, 1.002000093460083, 192.0, 0.0, 0.0, 0.0, 0.0, 0.0, 0.0, 0.0, 0.0, 0.0, 1.598474816384106E9, 2020-08-26 15:46:56.384
60.0, 62.20490264892578, -17103.21875, 18257.26171875, 4607.81201171875, 104479.5390625, 69438.6875, -101239.8984375, 187500.0, 0.006000000052154064, -0.01600000075995922, 1.002000093460083, 192.0, 0.0, 0.0, 0.0, 0.0, 0.0, 0.0, 0.0, 0.0, 0.0, 1.598474816443922E9, 2020-08-26 15:46:56.443
61.0, -84.62370300292969, -21976.837890625, 14191.7705078125, 282.34722900390625, 101582.1015625, 66569.6640625, -105323.515625, 187500.0, 0.006000000052154064, -0.01600000075995922, 1.002000093460083, 192.0, 0.0, 0.0, 0.0, 0.0, 0.0, 0.0, 0.0, 0.0, 0.0, 1.598474816443929E9, 2020-08-26 15:46:56.443
62.0, -123.80630493164062, -38393.63671875, -2804.29443359375, -15725.2119140625, 83543.109375, 50005.8359375, -124102.8671875, 187500.0, 0.006000000052154064, -0.01600000075995922, 1.002000093460083, 192.0, 0.0, 0.0, 0.0, 0.0, 0.0, 0.0, 0.0, 0.0, 0.0, 1.598474816443931E9, 2020-08-26 15:46:56.443
63.0, -92.69268035888672, -53942.4921875, -19980.916015625, -31523.580078125, 64798.6640625, 32876.375, -143246.765625, 187500.0, 0.006000000052154064, -0.01600000075995922, 1.002000093460083, 192.0, 0.0, 0.0, 0.0, 0.0, 0.0, 0.0, 0.0, 0.0, 0.0, 1.598474816443933E9, 2020-08-26 15:46:56.443
64.0, -21.21180534362793, -68258.8515625, -36733.390625, -46663.265625, 46276.9140625, 15856.8408203125, -161693.671875, 187500.0, 0.006000000052154064, -0.01600000075995922, 1.002000093460083, 192.0, 0.0, 0.0, 0.0, 0.0, 0.0, 0.0, 0.0, 0.0, 0.0, 1.598474816443935E9, 2020-08-26 15:46:56.443
65.0, 29.057266235351562, -65471.69921875, -35279.41015625, -44727.359375, 46792.59375, 16297.70703125, -159914.1875, 187500.0, 0.006000000052154064, -0.01600000075995922, 1.002000093460083, 192.0, 0.0, 0.0, 0.0, 0.0, 0.0, 0.0, 0.0, 0.0, 0.0, 1.598474816443937E9, 2020-08-26 15:46:56.443
66.0, 15.377999305725098, -46061.71484375, -15223.8623046875, -25705.64453125, 67827.953125, 35822.37890625, -138161.40625, 187500.0, 0.00800000037997961, -0.024000000208616257, 1.002000093460083, 192.0, 0.0, 64.0, 255.0, 64.0, 31.0, 80.0, 0.0, 0.0, 0.0, 1.598474816443939E9, 2020-08-26 15:46:56.443
67.0, 35.15929412841797, -28084.65234375, 4788.5927734375, -7255.6220703125, 89281.5390625, 55641.3359375, -116418.7890625, 187500.0, 0.00800000037997961, -0.024000000208616257, 1.002000093460083, 192.0, 0.0, 0.0, 0.0, 0.0, 0.0, 0.0, 0.0, 0.0, 0.0, 1.598474816443941E9, 2020-08-26 15:46:56.443
68.0, 57.041648864746094, -16289.548828125, 19152.046875, 5459.5029296875, 105392.296875, 70302.40625, -100449.2734375, 187500.0, 0.00800000037997961, -0.024000000208616257, 1.002000093460083, 192.0, 0.0, 0.0, 0.0, 0.0, 0.0, 0.0, 0.0, 0.0, 0.0, 1.598474816443942E9, 2020-08-26 15:46:56.443
69.0, -62.42842102050781, -22123.5546875, 14130.861328125, 183.01608276367188, 101542.359375, 66498.359375, -105484.8515625, 187500.0, 0.00800000037997961, -0.024000000208616257, 1.002000093460083, 192.0, 0.0, 0.0, 0.0, 0.0, 0.0, 0.0, 0.0, 0.0, 0.0, 1.598474816443944E9, 2020-08-26 15:46:56.443
70.0, -121.39231872558594, -39073.28515625, -3460.116943359375, -16385.705078125, 82904.5390625, 49355.35546875, -124857.2890625, 187500.0, 0.00800000037997961, -0.024000000208616257, 1.002000093460083, 192.0, 0.0, 0.0, 0.0, 0.0, 0.0, 0.0, 0.0, 0.0, 0.0, 1.598474816443946E9, 2020-08-26 15:46:56.443
71.0, -109.36708068847656, -54108.18359375, -20144.330078125, -31687.0390625, 64649.66796875, 32707.798828125, -143513.484375, 187500.0, 0.00800000037997961, -0.024000000208616257, 1.002000093460083, 192.0, 0.0, 0.0, 0.0, 0.0, 0.0, 0.0, 0.0, 0.0, 0.0, 1.598474816443948E9, 2020-08-26 15:46:56.443
72.0, -33.32645034790039, -67477.5, -35886.75390625, -45855.80859375, 47140.72265625, 16670.51171875, -160963.4375, 187500.0, 0.00800000037997961, -0.024000000208616257, 1.002000093460083, 192.0, 0.0, 0.0, 0.0, 0.0, 0.0, 0.0, 0.0, 0.0, 0.0, 1.59847481644395E9, 2020-08-26 15:46:56.443
73.0, 53.57712936401367, -65357.37109375, -35061.2578125, -44560.03515625, 47035.3984375, 16493.3515625, -159817.671875, 187500.0, 0.00800000037997961, -0.024000000208616257, 1.002000093460083, 192.0, 0.0, 0.0, 0.0, 0.0, 0.0, 0.0, 0.0, 0.0, 0.0, 1.598474816443951E9, 2020-08-26 15:46:56.443
74.0, 19.64718246459961, -46763.55859375, -15883.5732421875, -26379.125, 67195.84375, 35163.62890625, -138937.765625, 187500.0, 0.00800000037997961, -0.024000000208616257, 1.002000093460083, 192.0, 0.0, 0.0, 0.0, 0.0, 0.0, 0.0, 0.0, 0.0, 0.0, 1.598474816443953E9, 2020-08-26 15:46:56.443
75.0, 20.809473037719727, -28414.38671875, 4462.83837890625, -7580.83984375, 88982.3359375, 55309.58984375, -116861.3046875, 187500.0, 0.00800000037997961, -0.024000000208616257, 1.002000093460083, 192.0, 0.0, 0.0, 0.0, 0.0, 0.0, 0.0, 0.0, 0.0, 0.0, 1.598474816504173E9, 2020-08-26 15:46:56.504
76.0, 41.35072708129883, -15670.1142578125, 19818.083984375, 6101.04248046875, 106092.125, 70942.0625, -99897.359375, 187500.0, 0.006000000052154064, -0.018000001087784767, 1.0120000839233398, 192.0, 0.0, 48.0, 255.0, 112.0, 31.0, 160.0, 0.0, 0.0, 0.0, 1.598474816504178E9, 2020-08-26 15:46:56.504
77.0, -39.47317886352539, -21849.923828125, 14497.1396484375, 509.6644592285156, 101953.4296875, 66847.6484375, -105222.9375, 187500.0, 0.006000000052154064, -0.018000001087784767, 1.0120000839233398, 192.0, 0.0, 0.0, 0.0, 0.0, 0.0, 0.0, 0.0, 0.0, 0.0, 1.59847481650418E9, 2020-08-26 15:46:56.504
78.0, -115.13383483886719, -39800.23046875, -4154.38427734375, -17086.677734375, 82250.8203125, 48674.51953125, -125655.046875, 187500.0, 0.006000000052154064, -0.018000001087784767, 1.0120000839233398, 192.0, 0.0, 0.0, 0.0, 0.0, 0.0, 0.0, 0.0, 0.0, 0.0, 1.598474816504182E9, 2020-08-26 15:46:56.504
79.0, -120.43119812011719, -54602.94140625, -20656.38671875, -32186.82421875, 64171.3203125, 32211.27734375, -144134.125, 187500.0, 0.006000000052154064, -0.018000001087784767, 1.0120000839233398, 192.0, 0.0, 0.0, 0.0, 0.0, 0.0, 0.0, 0.0, 0.0, 0.0, 1.598474816504183E9, 2020-08-26 15:46:56.504
80.0, -51.2972526550293, -67009.6796875, -35407.21875, -45381.6171875, 47653.3828125, 17144.658203125, -160597.484375, 187500.0, 0.006000000052154064, -0.018000001087784767, 1.0120000839233398, 192.0, 0.0, 0.0, 0.0, 0.0, 0.0, 0.0, 0.0, 0.0, 0.0, 1.598474816504185E9, 2020-08-26 15:46:56.504
81.0, 70.36328887939453, -64785.87890625, -34416.0078125, -43943.28125, 47718.37890625, 17130.779296875, -159286.953125, 187500.0, 0.006000000052154064, -0.018000001087784767, 1.0120000839233398, 192.0, 0.0, 0.0, 0.0, 0.0, 0.0, 0.0, 0.0, 0.0, 0.0, 1.598474816504187E9, 2020-08-26 15:46:56.504
82.0, 30.599536895751953, -47382.0078125, -16471.826171875, -26964.7421875, 66642.3515625, 34597.68359375, -139632.296875, 187500.0, 0.006000000052154064, -0.018000001087784767, 1.0120000839233398, 192.0, 0.0, 0.0, 0.0, 0.0, 0.0, 0.0, 0.0, 0.0, 0.0, 1.598474816504188E9, 2020-08-26 15:46:56.504
83.0, 13.388694763183594, -29009.634765625, 3844.008056640625, -8170.41162109375, 88390.84375, 54717.1796875, -117581.234375, 187500.0, 0.006000000052154064, -0.018000001087784767, 1.0120000839233398, 192.0, 0.0, 0.0, 0.0, 0.0, 0.0, 0.0, 0.0, 0.0, 0.0, 1.59847481650419E9, 2020-08-26 15:46:56.504
84.0, 24.899843215942383, -15366.64453125, 20109.484375, 6406.9931640625, 106407.78125, 71240.0546875, -99710.59375, 187500.0, 0.006000000052154064, -0.018000001087784767, 1.0120000839233398, 192.0, 0.0, 0.0, 0.0, 0.0, 0.0, 0.0, 0.0, 0.0, 0.0, 1.598474816504191E9, 2020-08-26 15:46:56.504
85.0, -28.811397552490234, -21270.455078125, 15123.6142578125, 1120.2470703125, 102607.53125, 67473.6796875, -104690.9609375, 187500.0, 0.006000000052154064, -0.018000001087784767, 1.0120000839233398, 192.0, 0.0, 0.0, 0.0, 0.0, 0.0, 0.0, 0.0, 0.0, 0.0, 1.598474816504193E9, 2020-08-26 15:46:56.504
86.0, -100.73931121826172, -40430.6171875, -4778.15478515625, -17699.18359375, 81654.8125, 48079.80859375, -126368.84375, 187500.0, 0.006000000052154064, -0.018000001087784767, 1.0120000839233398, 192.0, 0.0, 0.0, 0.0, 0.0, 0.0, 0.0, 0.0, 0.0, 0.0, 1.598474816504195E9, 2020-08-26 15:46:56.504
87.0, -124.07453155517578, -55330.7578125, -21441.111328125, -32931.42578125, 63410.734375, 31461.107421875, -145009.6875, 187500.0, 0.0020000000949949026, -0.018000001087784767, 1.00600004196167, 192.0, 0.0, 16.0, 255.0, 112.0, 31.0, 112.0, 0.0, 0.0, 0.0, 1.598474816504196E9, 2020-08-26 15:46:56.504
88.0, -68.73161315917969, -66911.1484375, -35364.97265625, -45307.65625, 47720.546875, 17202.796875, -160648.671875, 187500.0, 0.0020000000949949026, -0.018000001087784767, 1.00600004196167, 192.0, 0.0, 0.0, 0.0, 0.0, 0.0, 0.0, 0.0, 0.0, 0.0, 1.598474816504198E9, 2020-08-26 15:46:56.504
89.0, 71.07854461669922, -64009.0, -33622.765625, -43157.6171875, 48544.2109375, 17917.8515625, -158591.140625, 187500.0, 0.0020000000949949026, -0.018000001087784767, 1.00600004196167, 192.0, 0.0, 0.0, 0.0, 0.0, 0.0, 0.0, 0.0, 0.0, 0.0, 1.5984748165042E9, 2020-08-26 15:46:56.504
90.0, 49.754981994628906, -47767.93359375, -16845.591796875, -27335.578125, 66302.875, 34245.171875, -140096.015625, 187500.0, 0.0020000000949949026, -0.018000001087784767, 1.00600004196167, 192.0, 0.0, 0.0, 0.0, 0.0, 0.0, 0.0, 0.0, 0.0, 0.0, 1.59847481656446E9, 2020-08-26 15:46:56.564
91.0, 13.098121643066406, -29776.34375, 3024.90625, -8962.244140625, 87597.1328125, 53929.97265625, -118487.171875, 187500.0, 0.0020000000949949026, -0.018000001087784767, 1.00600004196167, 192.0, 0.0, 0.0, 0.0, 0.0, 0.0, 0.0, 0.0, 0.0, 0.0, 1.598474816564466E9, 2020-08-26 15:46:56.564
92.0, 7.979572296142578, -15439.265625, 19974.79296875, 6299.12353515625, 106291.6640625, 71117.2578125, -99936.703125, 187500.0, 0.0020000000949949026, -0.018000001087784767, 1.00600004196167, 192.0, 0.0, 0.0, 0.0, 0.0, 0.0, 0.0, 0.0, 0.0, 0.0, 1.598474816564467E9, 2020-08-26 15:46:56.564
93.0, -34.64520263671875, -20555.736328125, 15839.4287109375, 1832.0159912109375, 103347.6875, 68181.1796875, -104066.703125, 187500.0, 0.0020000000949949026, -0.018000001087784767, 1.00600004196167, 192.0, 0.0, 0.0, 0.0, 0.0, 0.0, 0.0, 0.0, 0.0, 0.0, 1.598474816564469E9, 2020-08-26 15:46:56.564
94.0, -78.14169311523438, -40648.3671875, -4984.0810546875, -17903.5, 81479.4609375, 47886.1953125, -126663.109375, 187500.0, 0.0020000000949949026, -0.018000001087784767, 1.00600004196167, 192.0, 0.0, 0.0, 0.0, 0.0, 0.0, 0.0, 0.0, 0.0, 0.0, 1.598474816564471E9, 2020-08-26 15:46:56.564
95.0, -122.0181655883789, -56101.73828125, -22258.224609375, -33717.29296875, 62616.53125, 30668.55859375, -145918.859375, 187500.0, 0.0020000000949949026, -0.018000001087784767, 1.00600004196167, 192.0, 0.0, 0.0, 0.0, 0.0, 0.0, 0.0, 0.0, 0.0, 0.0, 1.598474816564473E9, 2020-08-26 15:46:56.564
96.0, -84.69075775146484, -67152.75, -35674.34375, -45577.53125, 47427.25, 16905.583984375, -161055.15625, 187500.0, 0.0020000000949949026, -0.018000001087784767, 1.00600004196167, 192.0, 0.0, 0.0, 0.0, 0.0, 0.0, 0.0, 0.0, 0.0, 0.0, 1.598474816564474E9, 2020-08-26 15:46:56.564
97.0, 58.78508758544922, -63322.15625, -32950.47265625, -42472.08984375, 49236.0859375, 18578.43359375, -158017.9375, 187500.0, 0.010000000707805157, -0.01600000075995922, 1.0080000162124634, 192.0, 0.0, 80.0, 255.0, 128.0, 31.0, 128.0, 0.0, 0.0, 0.0, 1.598474816564476E9, 2020-08-26 15:46:56.564
98.0, 73.96192169189453, -47707.875, -16770.53515625, -27255.693359375, 66406.4921875, 34319.40234375, -140112.578125, 187500.0, 0.010000000707805157, -0.01600000075995922, 1.0080000162124634, 192.0, 0.0, 0.0, 0.0, 0.0, 0.0, 0.0, 0.0, 0.0, 0.0, 1.598474816564478E9, 2020-08-26 15:46:56.564
99.0, 17.45671272277832, -30524.927734375, 2228.6923828125, -9718.873046875, 86828.5234375, 53153.7421875, -119369.171875, 187500.0, 0.010000000707805157, -0.01600000075995922, 1.0080000162124634, 192.0, 0.0, 0.0, 0.0, 0.0, 0.0, 0.0, 0.0, 0.0, 0.0, 1.59847481656448E9, 2020-08-26 15:46:56.564
100.0, -5.386770248413086, -15818.59765625, 19509.115234375, 5885.638671875, 105850.6796875, 70662.8671875, -100486.5546875, 187500.0, 0.010000000707805157, -0.01600000075995922, 1.0080000162124634, 192.0, 0.0, 0.0, 0.0, 0.0, 0.0, 0.0, 0.0, 0.0, 0.0, 1.598474816564482E9, 2020-08-26 15:46:56.564
101.0, -50.53729248046875, -19988.78515625, 16361.521484375, 2379.32080078125, 103892.421875, 68688.40625, -103630.9765625, 187500.0, 0.010000000707805157, -0.01600000075995922, 1.0080000162124634, 192.0, 0.0, 0.0, 0.0, 0.0, 0.0, 0.0, 0.0, 0.0, 0.0, 1.598474816564484E9, 2020-08-26 15:46:56.564
102.0, -55.767601013183594, -40329.7890625, -4661.14306640625, -17571.734375, 81828.1484375, 48199.234375, -126430.40625, 187500.0, 0.010000000707805157, -0.01600000075995922, 1.0080000162124634, 192.0, 0.0, 0.0, 0.0, 0.0, 0.0, 0.0, 0.0, 0.0, 0.0, 1.598474816564485E9, 2020-08-26 15:46:56.564
103.0, -114.68679809570312, -56819.0703125, -23023.546875, -34440.99609375, 61873.89453125, 29921.765625, -146766.0, 187500.0, 0.010000000707805157, -0.01600000075995922, 1.0080000162124634, 192.0, 0.0, 0.0, 0.0, 0.0, 0.0, 0.0, 0.0, 0.0, 0.0, 1.598474816564487E9, 2020-08-26 15:46:56.564
104.0, -95.12902069091797, -67682.890625, -36297.98046875, -46143.54296875, 46817.671875, 16296.2763671875, -161758.5, 187500.0, 0.010000000707805157, -0.01600000075995922, 1.0080000162124634, 192.0, 0.0, 0.0, 0.0, 0.0, 0.0, 0.0, 0.0, 0.0, 0.0, 1.59847481656449E9, 2020-08-26 15:46:56.564
105.0, 40.97074508666992, -62875.27734375, -32563.607421875, -42053.5078125, 49630.37109375, 18951.57421875, -157720.46875, 187500.0, 0.010000000707805157, -0.01600000075995922, 1.0080000162124634, 192.0, 0.0, 0.0, 0.0, 0.0, 0.0, 0.0, 0.0, 0.0, 0.0, 1.598474816624879E9, 2020-08-26 15:46:56.624
106.0, 90.61396789550781, -47145.5703125, -16201.9296875, -26685.12109375, 66983.8828125, 34869.5703125, -139641.375, 187500.0, 0.010000000707805157, -0.01600000075995922, 1.0080000162124634, 192.0, 0.0, 0.0, 0.0, 0.0, 0.0, 0.0, 0.0, 0.0, 0.0, 1.598474816624885E9, 2020-08-26 15:46:56.624
107.0, 28.69963836669922, -31165.416015625, 1554.630859375, -10361.75390625, 86163.0859375, 52496.33203125, -120135.03125, 187500.0, 0.012000000104308128, -0.014000000432133675, 1.0099999904632568, 192.0, 0.0, 96.0, 255.0, 144.0, 31.0, 144.0, 0.0, 0.0, 0.0, 1.598474816624887E9, 2020-08-26 15:46:56.624
108.0, -13.567508697509766, -16431.080078125, 18816.033203125, 5245.30615234375, 105160.1015625, 69989.6328125, -101277.71875, 187500.0, 0.012000000104308128, -0.014000000432133675, 1.0099999904632568, 192.0, 0.0, 0.0, 0.0, 0.0, 0.0, 0.0, 0.0, 0.0, 0.0, 1.598474816624888E9, 2020-08-26 15:46:56.624
109.0, -68.32927703857422, -19617.029296875, 16680.279296875, 2731.561767578125, 104214.21875, 69001.1953125, -103424.4453125, 187500.0, 0.012000000104308128, -0.014000000432133675, 1.0099999904632568, 192.0, 0.0, 0.0, 0.0, 0.0, 0.0, 0.0, 0.0, 0.0, 0.0, 1.59847481662489E9, 2020-08-26 15:46:56.624
110.0, -46.938663482666016, -39577.203125, -3885.15771484375, -16797.73828125, 82616.0, 48957.71875, -125760.40625, 187500.0, 0.012000000104308128, -0.014000000432133675, 1.0099999904632568, 192.0, 0.0, 0.0, 0.0, 0.0, 0.0, 0.0, 0.0, 0.0, 0.0, 1.598474816624892E9, 2020-08-26 15:46:56.624
111.0, -99.33114624023438, -57321.515625, -23525.90234375, -34924.84375, 61386.2265625, 29432.642578125, -147366.71875, 187500.0, 0.012000000104308128, -0.014000000432133675, 1.0099999904632568, 192.0, 0.0, 0.0, 0.0, 0.0, 0.0, 0.0, 0.0, 0.0, 0.0, 1.598474816624893E9, 2020-08-26 15:46:56.624
112.0, -98.66059875488281, -68374.921875, -37044.52734375, -46851.6015625, 46077.71875, 15568.9501953125, -162605.203125, 187500.0, 0.012000000104308128, -0.014000000432133675, 1.0099999904632568, 192.0, 0.0, 0.0, 0.0, 0.0, 0.0, 0.0, 0.0, 0.0, 0.0, 1.598474816624895E9, 2020-08-26 15:46:56.624
113.0, 24.07282829284668, -62752.296875, -32492.05859375, -41953.10546875, 49708.9609375, 19024.619140625, -157752.890625, 187500.0, 0.012000000104308128, -0.014000000432133675, 1.0099999904632568, 192.0, 0.0, 0.0, 0.0, 0.0, 0.0, 0.0, 0.0, 0.0, 0.0, 1.598474816624896E9, 2020-08-26 15:46:56.624
114.0, 91.3292236328125, -46342.6953125, -15378.87109375, -25867.806640625, 67822.140625, 35676.01953125, -138926.609375, 187500.0, 0.012000000104308128, -0.014000000432133675, 1.0099999904632568, 192.0, 0.0, 0.0, 0.0, 0.0, 0.0, 0.0, 0.0, 0.0, 0.0, 1.598474816624898E9, 2020-08-26 15:46:56.624
115.0, 47.944488525390625, -31507.53125, 1230.5751953125, -10678.3447265625, 85856.7109375, 52183.02734375, -120559.0703125, 187500.0, 0.012000000104308128, -0.014000000432133675, 1.0099999904632568, 192.0, 0.0, 0.0, 0.0, 0.0, 0.0, 0.0, 0.0, 0.0, 0.0, 1.598474816624899E9, 2020-08-26 15:46:56.624
116.0, -15.512109756469727, -17091.060546875, 18115.08203125, 4577.123046875, 104471.671875, 69309.71875, -102077.4375, 187500.0, 0.012000000104308128, -0.014000000432133675, 1.0099999904632568, 192.0, 0.0, 0.0, 0.0, 0.0, 0.0, 0.0, 0.0, 0.0, 0.0, 1.598474816624901E9, 2020-08-26 15:46:56.624
117.0, -84.8025131225586, -19497.806640625, 16757.416015625, 2834.335205078125, 104304.7265625, 69083.09375, -103455.8046875, 187500.0, 0.012000000104308128, -0.014000000432133675, 1.0099999904632568, 192.0, 0.0, 96.0, 255.0, 144.0, 31.0, 144.0, 0.0, 0.0, 0.0, 1.598474816624903E9, 2020-08-26 15:46:56.624
118.0, -52.75011444091797, -38720.171875, -2993.434814453125, -15921.080078125, 83524.6640625, 49832.765625, -124975.8203125, 187500.0, 0.012000000104308128, -0.014000000432133675, 1.0099999904632568, 192.0, 0.0, 0.0, 0.0, 0.0, 0.0, 0.0, 0.0, 0.0, 0.0, 1.598474816624904E9, 2020-08-26 15:46:56.624
119.0, -76.42060852050781, -57429.2734375, -23580.0390625, -34995.27734375, 61350.57421875, 29381.34375, -147518.953125, 187500.0, 0.012000000104308128, -0.014000000432133675, 1.0099999904632568, 192.0, 0.0, 0.0, 0.0, 0.0, 0.0, 0.0, 0.0, 0.0, 0.0, 1.598474816624906E9, 2020-08-26 15:46:56.624
120.0, -96.1572036743164, -69066.6171875, -37743.0859375, -47535.56640625, 45392.390625, 14887.3115234375, -163399.734375, 187500.0, 0.012000000104308128, -0.014000000432133675, 1.0099999904632568, 192.0, 0.0, 0.0, 0.0, 0.0, 0.0, 0.0, 0.0, 0.0, 0.0, 1.598474816684132E9, 2020-08-26 15:46:56.684
121.0, 8.62777328491211, -62922.68359375, -32693.380859375, -42135.36328125, 49514.20703125, 18824.83984375, -158056.90625, 187500.0, 0.012000000104308128, -0.014000000432133675, 1.0099999904632568, 192.0, 0.0, 0.0, 0.0, 0.0, 0.0, 0.0, 0.0, 0.0, 0.0, 1.598474816684142E9, 2020-08-26 15:46:56.684
122.0, 78.92400360107422, -45585.578125, -14594.794921875, -25097.677734375, 68616.8125, 36433.25390625, -138249.515625, 187500.0, 0.012000000104308128, -0.014000000432133675, 1.0099999904632568, 192.0, 0.0, 0.0, 0.0, 0.0, 0.0, 0.0, 0.0, 0.0, 0.0, 1.598474816684146E9, 2020-08-26 15:46:56.684
123.0, 72.12907409667969, -31374.806640625, 1427.136474609375, -10506.2578125, 86072.5, 52364.79296875, -120464.9921875, 187500.0, 0.012000000104308128, -0.014000000432133675, 1.0099999904632568, 192.0, 0.0, 0.0, 0.0, 0.0, 0.0, 0.0, 0.0, 0.0, 0.0, 1.59847481668415E9, 2020-08-26 15:46:56.684
124.0, -10.930002212524414, -17779.203125, 17434.337890625, 3906.77197265625, 103805.4765625, 68636.5078125, -102858.1875, 187500.0, 0.012000000104308128, -0.014000000432133675, 1.0099999904632568, 192.0, 0.0, 0.0, 0.0, 0.0, 0.0, 0.0, 0.0, 0.0, 0.0, 1.598474816684154E9, 2020-08-26 15:46:56.684
125.0, -99.71112823486328, -19769.267578125, 16463.109375, 2561.82275390625, 104015.5859375, 68783.578125, -103859.390625, 187500.0, 0.012000000104308128, -0.014000000432133675, 1.0099999904632568, 192.0, 0.0, 0.0, 0.0, 0.0, 0.0, 0.0, 0.0, 0.0, 0.0, 1.598474816684159E9, 2020-08-26 15:46:56.684
126.0, -68.99983215332031, -38013.8125, -2256.654296875, -15194.4697265625, 84267.484375, 50535.59375, -124352.765625, 187500.0, 0.012000000104308128, -0.014000000432133675, 1.0099999904632568, 192.0, 0.0, 0.0, 0.0, 0.0, 0.0, 0.0, 0.0, 0.0, 0.0, 1.598474816684162E9, 2020-08-26 15:46:56.684
127.0, -54.11357116699219, -57007.69921875, -23072.85546875, -34521.62109375, 61870.765625, 29859.470703125, -147122.484375, 187500.0, 0.00800000037997961, -0.018000001087784767, 1.0120000839233398, 192.0, 0.0, 64.0, 255.0, 112.0, 31.0, 160.0, 0.0, 0.0, 0.0, 1.598474816684165E9, 2020-08-26 15:46:56.684
128.0, -88.87052917480469, -69698.4609375, -38343.0078125, -48138.32421875, 44808.09375, 14292.2861328125, -164097.8125, 187500.0, 0.00800000037997961, -0.018000001087784767, 1.0120000839233398, 192.0, 0.0, 0.0, 0.0, 0.0, 0.0, 0.0, 0.0, 0.0, 0.0, 1.598474816684168E9, 2020-08-26 15:46:56.684
129.0, -2.2351744174957275, -63383.82421875, -33169.7421875, -42597.125, 49054.09765625, 18355.498046875, -158628.921875, 187500.0, 0.00800000037997961, -0.018000001087784767, 1.0120000839233398, 192.0, 0.0, 0.0, 0.0, 0.0, 0.0, 0.0, 0.0, 0.0, 0.0, 1.598474816684171E9, 2020-08-26 15:46:56.684
130.0, 61.15436935424805, -45065.83203125, -14059.3134765625, -24568.767578125, 69170.3984375, 36954.2265625, -137817.96875, 187500.0, 0.00800000037997961, -0.018000001087784767, 1.0120000839233398, 192.0, 0.0, 0.0, 0.0, 0.0, 0.0, 0.0, 0.0, 0.0, 0.0, 1.598474816684174E9, 2020-08-26 15:46:56.684
131.0, 88.93759155273438, -30736.017578125, 2150.5283203125, -9817.265625, 86820.3828125, 53068.4921875, -119849.8046875, 187500.0, 0.00800000037997961, -0.018000001087784767, 1.0120000839233398, 192.0, 0.0, 0.0, 0.0, 0.0, 0.0, 0.0, 0.0, 0.0, 0.0, 1.598474816684177E9, 2020-08-26 15:46:56.684
132.0, 0.0, -18323.35546875, 16937.234375, 3400.348388671875, 103333.609375, 68149.484375, -103457.484375, 187500.0, 0.00800000037997961, -0.018000001087784767, 1.0120000839233398, 192.0, 0.0, 0.0, 0.0, 0.0, 0.0, 0.0, 0.0, 0.0, 0.0, 1.59847481668419E9, 2020-08-26 15:46:56.684
133.0, -107.62364196777344, -20276.541015625, 15954.09375, 2060.07080078125, 103526.28125, 68284.9765625, -104473.8828125, 187500.0, 0.00800000037997961, -0.018000001087784767, 1.0120000839233398, 192.0, 0.0, 0.0, 0.0, 0.0, 0.0, 0.0, 0.0, 0.0, 0.0, 1.598474816684193E9, 2020-08-26 15:46:56.684
134.0, -85.92010498046875, -37624.33203125, -1852.534912109375, -14799.7373046875, 84692.8359375, 50929.69921875, -124054.7265625, 187500.0, 0.00800000037997961, -0.018000001087784767, 1.0120000839233398, 192.0, 0.0, 0.0, 0.0, 0.0, 0.0, 0.0, 0.0, 0.0, 0.0, 1.598474816684196E9, 2020-08-26 15:46:56.684
135.0, -45.68696212768555, -56203.2578125, -22181.84765625, -33670.5546875, 62790.7421875, 30730.138671875, -146336.3125, 187500.0, 0.00800000037997961, -0.018000001087784767, 1.0120000839233398, 192.0, 0.0, 0.0, 0.0, 0.0, 0.0, 0.0, 0.0, 0.0, 0.0, 1.598474816743969E9, 2020-08-26 15:46:56.743
136.0, -73.40312957763672, -70134.5625, -38714.42578125, -48527.98046875, 44466.11328125, 13931.283203125, -164565.296875, 187500.0, 0.00800000037997961, -0.018000001087784767, 1.0120000839233398, 192.0, 0.0, 0.0, 0.0, 0.0, 0.0, 0.0, 0.0, 0.0, 0.0, 1.598474816743975E9, 2020-08-26 15:46:56.743
137.0, -5.565584182739258, -64004.9765625, -33779.1171875, -43202.43359375, 48460.34765625, 17763.04296875, -159333.6875, 187500.0, 0.00800000037997961, -0.01600000075995922, 1.0099999904632568, 192.0, 0.0, 64.0, 255.0, 128.0, 31.0, 144.0, 0.0, 0.0, 0.0, 1.598474816743977E9, 2020-08-26 15:46:56.743
138.0, 44.189395904541016, -44888.40234375, -13863.400390625, -24383.650390625, 69371.7890625, 37144.86328125, -137724.03125, 187500.0, 0.00800000037997961, -0.01600000075995922, 1.0099999904632568, 192.0, 0.0, 0.0, 0.0, 0.0, 0.0, 0.0, 0.0, 0.0, 0.0, 1.598474816743979E9, 2020-08-26 15:46:56.743
139.0, 89.13875579833984, -29870.177734375, 3103.94189453125, -8914.3671875, 87782.359375, 53992.11328125, -119006.25, 187500.0, 0.00800000037997961, -0.01600000075995922, 1.0099999904632568, 192.0, 0.0, 0.0, 0.0, 0.0, 0.0, 0.0, 0.0, 0.0, 0.0, 1.598474816743982E9, 2020-08-26 15:46:56.743
140.0, 19.40131378173828, -18572.376953125, 16770.69140625, 3194.131103515625, 103175.40625, 67976.078125, -103733.078125, 187500.0, 0.00800000037997961, -0.01600000075995922, 1.0099999904632568, 192.0, 0.0, 0.0, 0.0, 0.0, 0.0, 0.0, 0.0, 0.0, 0.0, 1.598474816743984E9, 2020-08-26 15:46:56.743
141.0, -107.82481384277344, -20898.03125, 15357.279296875, 1449.1976318359375, 102931.4140625, 67692.8828125, -105177.15625, 187500.0, 0.00800000037997961, -0.01600000075995922, 1.0099999904632568, 192.0, 0.0, 0.0, 0.0, 0.0, 0.0, 0.0, 0.0, 0.0, 0.0, 1.598474816743986E9, 2020-08-26 15:46:56.743
142.0, -103.13094329833984, -37577.03515625, -1786.59716796875, -14748.3291015625, 84757.9453125, 50985.53515625, -124093.328125, 187500.0, 0.00800000037997961, -0.01600000075995922, 1.0099999904632568, 192.0, 0.0, 0.0, 0.0, 0.0, 0.0, 0.0, 0.0, 0.0, 0.0, 1.598474816743988E9, 2020-08-26 15:46:56.743
143.0, -52.906578063964844, -55326.0625, -21215.984375, -32754.669921875, 63761.87890625, 31661.87109375, -145478.296875, 187500.0, 0.00800000037997961, -0.01600000075995922, 1.0099999904632568, 192.0, 0.0, 0.0, 0.0, 0.0, 0.0, 0.0, 0.0, 0.0, 0.0, 1.59847481674399E9, 2020-08-26 15:46:56.743
144.0, -51.029029846191406, -70199.0, -38669.9453125, -48532.1640625, 44524.6953125, 13965.1015625, -164621.859375, 187500.0, 0.00800000037997961, -0.01600000075995922, 1.0099999904632568, 192.0, 0.0, 0.0, 0.0, 0.0, 0.0, 0.0, 0.0, 0.0, 0.0, 1.598474816743992E9, 2020-08-26 15:46:56.743
145.0, -3.17394757270813, -64687.46484375, -34409.8828125, -43852.46875, 47845.11328125, 17140.703125, -160063.421875, 187500.0, 0.00800000037997961, -0.01600000075995922, 1.0099999904632568, 192.0, 0.0, 0.0, 0.0, 0.0, 0.0, 0.0, 0.0, 0.0, 0.0, 1.598474816743994E9, 2020-08-26 15:46:56.743
146.0, 28.051437377929688, -45062.09765625, -14011.7490234375, -24543.779296875, 69241.1640625, 36997.96875, -137976.0, 187500.0, 0.00800000037997961, -0.01600000075995922, 1.0099999904632568, 192.0, 0.0, 0.0, 0.0, 0.0, 0.0, 0.0, 0.0, 0.0, 0.0, 1.598474816743996E9, 2020-08-26 15:46:56.743
147.0, 76.44296264648438, -29083.552734375, 3967.054443359375, -8093.49951171875, 88670.1015625, 54836.4921875, -118251.09375, 187500.0, 0.012000000104308128, -0.01600000075995922, 1.0120000839233398, 192.0, 0.0, 96.0, 255.0, 128.0, 31.0, 160.0, 0.0, 0.0, 0.0, 1.598474816743998E9, 2020-08-26 15:46:56.743
148.0, 44.09999084472656, -18403.44140625, 17045.775390625, 3421.448486328125, 103482.671875, 68251.359375, -103557.6875, 187500.0, 0.012000000104308128, -0.01600000075995922, 1.0120000839233398, 192.0, 0.0, 0.0, 0.0, 0.0, 0.0, 0.0, 0.0, 0.0, 0.0, 1.598474816744E9, 2020-08-26 15:46:56.744
149.0, -102.88507843017578, -21561.990234375, 14738.248046875, 816.5315551757812, 102339.515625, 67095.3984375, -105892.2578125, 187500.0, 0.012000000104308128, -0.01600000075995922, 1.0120000839233398, 192.0, 0.0, 0.0, 0.0, 0.0, 0.0, 0.0, 0.0, 0.0, 0.0, 1.598474816744003E9, 2020-08-26 15:46:56.744
150.0, -115.8714370727539, -37888.08203125, -2091.787841796875, -15057.1630859375, 84472.421875, 50693.0625, -124502.5390625, 187500.0, 0.012000000104308128, -0.01600000075995922, 1.0120000839233398, 192.0, 0.0, 0.0, 0.0, 0.0, 0.0, 0.0, 0.0, 0.0, 0.0, 1.598474816804289E9, 2020-08-26 15:46:56.804
