Sample Index, EXG Channel 0, EXG Channel 1, EXG Channel 2, EXG Channel 3, EXG Channel 4, EXG Channel 5, EXG Channel 6, EXG Channel 7, Accel Channel 0, Accel Channel 1, Accel Channel 2, Other, Other, Other, Other, Other, Other, Other, Analog Channel 0, Analog Channel 1, Analog Channel 2, Timestamp, Timestamp (Formatted)
0.0, 0.0, 0.0, 0.0, 0.0, 0.0, 0.0, 0.0, 0.0, 0.0, 0.0, 0.0, 192.0, 0.0, 0.0, 0.0, 0.0, 0.0, 0.0, 0.0, 0.0, 0.0, 1.598381206941731E9, 2020-08-25 13:46:46.941
1.0, 0.2905726730823517, 40739.94140625, 95335.8828125, -8622.05078125, 86926.109375, 108386.7109375, 49929.97265625, -40451.15625, 0.00800000037997961, -0.014000000432133675, 1.0180000066757202, 192.0, 0.0, 64.0, 255.0, 144.0, 31.0, 208.0, 0.0, 0.0, 0.0, 1.598381207004242E9, 2020-08-25 13:46:47.004
2.0, -1.6093255281448364, 55902.76171875, 111703.78125, 6489.27001953125, 104642.5078125, 124702.6328125, 68096.1953125, -22852.01953125, 0.00800000037997961, -0.014000000432133675, 1.0180000066757202, 192.0, 0.0, 0.0, 0.0, 0.0, 0.0, 0.0, 0.0, 0.0, 0.0, 1.598381207004245E9, 2020-08-25 13:46:47.004
3.0, -3.956258535385132, 71808.4375, 128775.1015625, 22104.265625, 123784.25, 142401.46875, 87260.2890625, -4296.96630859375, 0.00800000037997961, -0.014000000432133675, 1.0180000066757202, 192.0, 0.0, 0.0, 0.0, 0.0, 0.0, 0.0, 0.0, 0.0, 0.0, 1.598381207004246E9, 2020-08-25 13:46:47.004
4.0, -2.7045609951019287, 83525.109375, 141206.0, 33271.84375, 138837.09375, 156239.828125, 101803.6953125, 9744.48828125, 0.00800000037997961, -0.014000000432133675, 1.0180000066757202, 192.0, 0.0, 0.0, 0.0, 0.0, 0.0, 0.0, 0.0, 0.0, 0.0, 1.598381207004248E9, 2020-08-25 13:46:47.004
5.0, -32.34297180175781, 77127.84375, 133673.953125, 26004.599609375, 133365.953125, 151084.671875, 94640.4140625, 2773.09130859375, 0.00800000037997961, -0.014000000432133675, 1.0180000066757202, 192.0, 0.0, 0.0, 0.0, 0.0, 0.0, 0.0, 0.0, 0.0, 0.0, 1.598381207004249E9, 2020-08-25 13:46:47.004
6.0, -47.96684265136719, 57999.48828125, 113251.9453125, 6833.7548828125, 112147.59375, 131586.328125, 72404.2265625, -18802.935546875, 0.00800000037997961, -0.014000000432133675, 1.0180000066757202, 192.0, 0.0, 0.0, 0.0, 0.0, 0.0, 0.0, 0.0, 0.0, 0.0, 1.598381207004251E9, 2020-08-25 13:46:47.004
7.0, -50.425533294677734, 41274.796875, 95528.734375, -9566.099609375, 92609.328125, 113755.15625, 52415.734375, -38130.64453125, 0.00800000037997961, -0.014000000432133675, 1.0180000066757202, 192.0, 0.0, 0.0, 0.0, 0.0, 0.0, 0.0, 0.0, 0.0, 0.0, 1.598381207004253E9, 2020-08-25 13:46:47.004
8.0, -33.438209533691406, 27378.181640625, 80898.3125, -22914.5390625, 75700.640625, 98286.515625, 35600.96484375, -54371.66796875, 0.00800000037997961, -0.014000000432133675, 1.0180000066757202, 192.0, 0.0, 0.0, 255.0, 96.0, 31.0, 224.0, 0.0, 0.0, 0.0, 1.598381207004254E9, 2020-08-25 13:46:47.004
9.0, 2.0116569995880127, 28964.349609375, 83017.5703125, -20625.294921875, 76461.46875, 98900.765625, 37523.68359375, -52482.3203125, 0.00800000037997961, -0.014000000432133675, 1.0180000066757202, 192.0, 0.0, 0.0, 0.0, 0.0, 0.0, 0.0, 0.0, 0.0, 0.0, 1.598381207004256E9, 2020-08-25 13:46:47.004
10.0, 1.9893051385879517, 45098.0625, 100364.515625, -4373.431640625, 94626.84375, 115648.1640625, 56422.21484375, -34207.15234375, 0.00800000037997961, -0.014000000432133675, 1.0180000066757202, 192.0, 0.0, 0.0, 0.0, 0.0, 0.0, 0.0, 0.0, 0.0, 0.0, 1.598381207004257E9, 2020-08-25 13:46:47.004
11.0, -4.09036922454834, 62013.3046875, 118454.1796875, 12381.345703125, 114344.1875, 133901.203125, 76402.6875, -14884.2939453125, 0.00800000037997961, -0.014000000432133675, 1.0180000066757202, 192.0, 0.0, 0.0, 0.0, 0.0, 0.0, 0.0, 0.0, 0.0, 0.0, 1.598381207004259E9, 2020-08-25 13:46:47.004
12.0, -5.9679155349731445, 75444.1328125, 132635.453125, 25359.23828125, 130790.828125, 149084.03125, 92543.5703125, 717.3345336914062, 0.00800000037997961, -0.014000000432133675, 1.0180000066757202, 192.0, 0.0, 0.0, 0.0, 0.0, 0.0, 0.0, 0.0, 0.0, 0.0, 1.59838120700426E9, 2020-08-25 13:46:47.004
13.0, -31.717124938964844, 70335.5078125, 126430.9375, 19449.458984375, 126368.78125, 144922.765625, 86607.3515625, -5051.40478515625, 0.00800000037997961, -0.014000000432133675, 1.0180000066757202, 192.0, 0.0, 0.0, 0.0, 0.0, 0.0, 0.0, 0.0, 0.0, 0.0, 1.598381207004262E9, 2020-08-25 13:46:47.004
14.0, -44.72583770751953, 51471.21484375, 106280.0390625, 585.0345458984375, 105193.3828125, 125443.0390625, 64570.5234375, -26451.90234375, 0.00800000037997961, -0.014000000432133675, 1.0180000066757202, 192.0, 0.0, 0.0, 0.0, 0.0, 0.0, 0.0, 0.0, 0.0, 0.0, 1.598381207004264E9, 2020-08-25 13:46:47.004
15.0, -50.55964279174805, 35075.765625, 88889.734375, -15460.2314453125, 85787.9140625, 107719.7578125, 44849.46484375, -45532.26953125, 0.00800000037997961, -0.014000000432133675, 1.0180000066757202, 192.0, 0.0, 0.0, 0.0, 0.0, 0.0, 0.0, 0.0, 0.0, 0.0, 1.598381207004265E9, 2020-08-25 13:46:47.004
16.0, -36.925079345703125, 22272.6640625, 75383.8515625, -27692.15625, 69843.25, 93161.421875, 29115.44921875, -60708.85546875, 0.00800000037997961, -0.014000000432133675, 1.0180000066757202, 192.0, 0.0, 0.0, 0.0, 0.0, 0.0, 0.0, 0.0, 0.0, 0.0, 1.598381207064495E9, 2020-08-25 13:46:47.064
17.0, 2.3245813846588135, 24792.486328125, 78480.4609375, -24453.724609375, 71461.2265625, 94577.0, 32002.01953125, -57869.89453125, 0.00800000037997961, -0.014000000432133675, 1.0180000066757202, 192.0, 0.0, 0.0, 0.0, 0.0, 0.0, 0.0, 0.0, 0.0, 0.0, 1.598381207064501E9, 2020-08-25 13:46:47.064
18.0, 5.006790637969971, 40981.4296875, 95899.1484375, -8149.04345703125, 89600.1796875, 111267.984375, 50963.25, -39538.984375, 0.004000000189989805, -0.020000001415610313, 1.0220000743865967, 192.0, 0.0, 32.0, 255.0, 96.0, 31.0, 240.0, 0.0, 0.0, 0.0, 1.598381207064503E9, 2020-08-25 13:46:47.064
19.0, -3.688037633895874, 57835.80859375, 113926.75, 8532.755859375, 109164.4609375, 129352.421875, 70866.40625, -20294.9140625, 0.004000000189989805, -0.020000001415610313, 1.0220000743865967, 192.0, 0.0, 0.0, 0.0, 0.0, 0.0, 0.0, 0.0, 0.0, 0.0, 1.598381207064504E9, 2020-08-25 13:46:47.064
20.0, -9.655953407287598, 71980.9765625, 128842.4453125, 22215.8671875, 126275.015625, 145155.578125, 87733.453125, -3967.32275390625, 0.004000000189989805, -0.020000001415610313, 1.0220000743865967, 192.0, 0.0, 0.0, 0.0, 0.0, 0.0, 0.0, 0.0, 0.0, 0.0, 1.598381207064506E9, 2020-08-25 13:46:47.064
21.0, -32.65589904785156, 67728.109375, 123536.0546875, 17158.94140625, 122708.59375, 141793.875, 82707.9140625, -8829.20703125, 0.004000000189989805, -0.020000001415610313, 1.0220000743865967, 192.0, 0.0, 0.0, 0.0, 0.0, 0.0, 0.0, 0.0, 0.0, 0.0, 1.598381207064507E9, 2020-08-25 13:46:47.064
22.0, -41.842464447021484, 48840.68359375, 103382.359375, -1736.171630859375, 101500.140625, 122246.984375, 60689.05078125, -30217.34375, 0.004000000189989805, -0.020000001415610313, 1.0220000743865967, 192.0, 0.0, 0.0, 0.0, 0.0, 0.0, 0.0, 0.0, 0.0, 0.0, 1.598381207064509E9, 2020-08-25 13:46:47.064
23.0, -49.12913131713867, 32161.208984375, 85712.5, -18071.921875, 81774.8828125, 104191.3984375, 40700.46875, -49573.015625, 0.004000000189989805, -0.020000001415610313, 1.0220000743865967, 192.0, 0.0, 0.0, 0.0, 0.0, 0.0, 0.0, 0.0, 0.0, 0.0, 1.598381207064511E9, 2020-08-25 13:46:47.064
24.0, -39.98727035522461, 19804.271484375, 72673.5, -29868.6796875, 66264.4921875, 90039.484375, 25440.84375, -64276.6171875, 0.004000000189989805, -0.020000001415610313, 1.0220000743865967, 192.0, 0.0, 0.0, 0.0, 0.0, 0.0, 0.0, 0.0, 0.0, 0.0, 1.598381207064512E9, 2020-08-25 13:46:47.064
25.0, 0.8940697312355042, 23128.890625, 76614.5390625, -25838.369140625, 68721.3046875, 92242.359375, 29188.314453125, -60565.71484375, 0.004000000189989805, -0.020000001415610313, 1.0220000743865967, 192.0, 0.0, 0.0, 0.0, 0.0, 0.0, 0.0, 0.0, 0.0, 0.0, 1.598381207064514E9, 2020-08-25 13:46:47.064
26.0, 7.957220554351807, 39299.99609375, 94037.3359375, -9562.0986328125, 86866.2265625, 108909.3828125, 48182.3125, -42198.953125, 0.004000000189989805, -0.020000001415610313, 1.0220000743865967, 192.0, 0.0, 0.0, 0.0, 0.0, 0.0, 0.0, 0.0, 0.0, 0.0, 1.598381207064515E9, 2020-08-25 13:46:47.064
27.0, -1.0728837251663208, 55733.46875, 111645.5546875, 6689.2958984375, 106007.859375, 126557.3359375, 67693.4375, -23350.7109375, 0.004000000189989805, -0.020000001415610313, 1.0220000743865967, 192.0, 0.0, 0.0, 0.0, 0.0, 0.0, 0.0, 0.0, 0.0, 0.0, 1.598381207064517E9, 2020-08-25 13:46:47.064
28.0, -11.891127586364746, 70082.640625, 126780.2734375, 20567.873046875, 123328.046875, 142547.9375, 84793.8203125, -6783.10595703125, 0.0020000000949949026, -0.018000001087784767, 1.0180000066757202, 192.0, 0.0, 16.0, 255.0, 112.0, 31.0, 208.0, 0.0, 0.0, 0.0, 1.598381207064519E9, 2020-08-25 13:46:47.064
29.0, -34.19816589355469, 66611.2109375, 122293.3203125, 16286.083984375, 120589.7109375, 139968.15625, 80612.3203125, -10789.8798828125, 0.0020000000949949026, -0.018000001087784767, 1.0180000066757202, 192.0, 0.0, 0.0, 0.0, 0.0, 0.0, 0.0, 0.0, 0.0, 0.0, 1.59838120706452E9, 2020-08-25 13:46:47.064
30.0, -39.49552917480469, 47789.76953125, 102224.265625, -2556.61474609375, 99487.9453125, 120500.578125, 58713.60546875, -32052.6015625, 0.0020000000949949026, -0.018000001087784767, 1.0180000066757202, 192.0, 0.0, 0.0, 0.0, 0.0, 0.0, 0.0, 0.0, 0.0, 0.0, 1.598381207064523E9, 2020-08-25 13:46:47.064
31.0, -46.51397705078125, 30635.30078125, 84069.9140625, -19391.3671875, 79292.03125, 101968.5625, 38263.1015625, -51863.6015625, 0.0020000000949949026, -0.018000001087784767, 1.0180000066757202, 192.0, 0.0, 0.0, 0.0, 0.0, 0.0, 0.0, 0.0, 0.0, 0.0, 1.598381207124005E9, 2020-08-25 13:46:47.124
32.0, -41.417781829833984, 18272.05859375, 71022.0625, -31211.349609375, 63775.515625, 87800.890625, 23007.96875, -66555.265625, 0.0020000000949949026, -0.018000001087784767, 1.0180000066757202, 192.0, 0.0, 0.0, 0.0, 0.0, 0.0, 0.0, 0.0, 0.0, 0.0, 1.598381207124012E9, 2020-08-25 13:46:47.124
33.0, -1.7210842370986938, 22322.529296875, 75715.9296875, -26463.279296875, 66998.4375, 90739.046875, 27533.16796875, -62062.05078125, 0.0020000000949949026, -0.018000001087784767, 1.0180000066757202, 192.0, 0.0, 0.0, 0.0, 0.0, 0.0, 0.0, 0.0, 0.0, 0.0, 1.598381207124014E9, 2020-08-25 13:46:47.124
34.0, 9.253622055053711, 38688.8125, 93355.4296875, -9999.208984375, 85388.625, 107627.515625, 46774.3984375, -43443.7890625, 0.0020000000949949026, -0.018000001087784767, 1.0180000066757202, 192.0, 0.0, 0.0, 0.0, 0.0, 0.0, 0.0, 0.0, 0.0, 0.0, 1.598381207124016E9, 2020-08-25 13:46:47.124
35.0, 1.8104912042617798, 54646.4140625, 110485.7890625, 5766.45947265625, 104074.4140625, 124814.171875, 65828.5859375, -25045.0625, 0.0020000000949949026, -0.018000001087784767, 1.0180000066757202, 192.0, 0.0, 0.0, 0.0, 0.0, 0.0, 0.0, 0.0, 0.0, 0.0, 1.598381207124018E9, 2020-08-25 13:46:47.124
36.0, -12.315811157226562, 68798.1328125, 125417.46875, 19435.7578125, 121201.8828125, 140605.859375, 82735.8984375, -8665.7265625, 0.0020000000949949026, -0.018000001087784767, 1.0180000066757202, 192.0, 0.0, 0.0, 0.0, 0.0, 0.0, 0.0, 0.0, 0.0, 0.0, 1.59838120712402E9, 2020-08-25 13:46:47.124
37.0, -37.75209426879883, 65962.2109375, 121582.5078125, 15776.93359375, 119128.890625, 138668.515625, 79219.03125, -12001.388671875, 0.0020000000949949026, -0.018000001087784767, 1.0180000066757202, 192.0, 0.0, 0.0, 0.0, 0.0, 0.0, 0.0, 0.0, 0.0, 0.0, 1.598381207124022E9, 2020-08-25 13:46:47.124
38.0, -38.60145950317383, 47462.20703125, 101853.7890625, -2755.992431640625, 98397.5390625, 119547.4296875, 57688.8671875, -32890.0546875, 0.0020000000949949026, -0.018000001087784767, 1.0140000581741333, 192.0, 0.0, 16.0, 255.0, 112.0, 31.0, 176.0, 0.0, 0.0, 0.0, 1.598381207124024E9, 2020-08-25 13:46:47.124
39.0, -43.2059211730957, 29870.4453125, 83262.796875, -20031.833984375, 77787.890625, 100597.953125, 36825.79296875, -53110.3359375, 0.0020000000949949026, -0.018000001087784767, 1.0140000581741333, 192.0, 0.0, 0.0, 0.0, 0.0, 0.0, 0.0, 0.0, 0.0, 0.0, 1.598381207124026E9, 2020-08-25 13:46:47.124
40.0, -41.39542770385742, 17204.5390625, 69904.609375, -32160.1796875, 61970.34375, 86130.34375, 21267.259765625, -68097.0234375, 0.0020000000949949026, -0.018000001087784767, 1.0140000581741333, 192.0, 0.0, 0.0, 0.0, 0.0, 0.0, 0.0, 0.0, 0.0, 0.0, 1.598381207124028E9, 2020-08-25 13:46:47.124
41.0, -5.498528957366943, 21808.10546875, 75168.7578125, -26864.806640625, 65774.9921875, 89628.390625, 26367.81640625, -63017.8125, 0.0020000000949949026, -0.018000001087784767, 1.0140000581741333, 192.0, 0.0, 0.0, 0.0, 0.0, 0.0, 0.0, 0.0, 0.0, 0.0, 1.59838120712403E9, 2020-08-25 13:46:47.124
42.0, 10.013581275939941, 38557.96484375, 93217.5859375, -10023.8857421875, 84602.9609375, 106926.6328125, 46038.01953125, -43962.70703125, 0.0020000000949949026, -0.018000001087784767, 1.0140000581741333, 192.0, 0.0, 0.0, 0.0, 0.0, 0.0, 0.0, 0.0, 0.0, 0.0, 1.598381207124033E9, 2020-08-25 13:46:47.124
43.0, 5.185604572296143, 54084.3359375, 109913.0234375, 5298.23486328125, 102873.3203125, 123702.5703125, 64675.6640625, -25974.0, 0.0020000000949949026, -0.018000001087784767, 1.0140000581741333, 192.0, 0.0, 0.0, 0.0, 0.0, 0.0, 0.0, 0.0, 0.0, 0.0, 1.598381207124035E9, 2020-08-25 13:46:47.124
44.0, -12.092293739318848, 67859.0859375, 124455.0234375, 18579.796875, 119618.1953125, 139121.8125, 81198.4296875, -9970.6884765625, 0.0020000000949949026, -0.018000001087784767, 1.0140000581741333, 192.0, 0.0, 0.0, 0.0, 0.0, 0.0, 0.0, 0.0, 0.0, 0.0, 1.598381207124037E9, 2020-08-25 13:46:47.124
45.0, -41.21661376953125, 65467.6328125, 121079.9296875, 15362.8232421875, 118016.8515625, 137635.28125, 78147.9296875, -12831.3759765625, 0.0020000000949949026, -0.018000001087784767, 1.0140000581741333, 192.0, 0.0, 0.0, 0.0, 0.0, 0.0, 0.0, 0.0, 0.0, 0.0, 1.598381207124039E9, 2020-08-25 13:46:47.124
46.0, -39.137901306152344, 47486.34765625, 101893.578125, -2655.2978515625, 97860.9609375, 119055.6484375, 57176.765625, -33145.78125, 0.0020000000949949026, -0.018000001087784767, 1.0140000581741333, 192.0, 0.0, 0.0, 0.0, 0.0, 0.0, 0.0, 0.0, 0.0, 0.0, 1.598381207183753E9, 2020-08-25 13:46:47.183
47.0, -40.300193786621094, 29574.642578125, 82980.8046875, -20258.81640625, 76958.0390625, 99811.796875, 36014.76171875, -53654.04296875, 0.0020000000949949026, -0.018000001087784767, 1.0140000581741333, 192.0, 0.0, 0.0, 0.0, 0.0, 0.0, 0.0, 0.0, 0.0, 0.0, 1.598381207183762E9, 2020-08-25 13:46:47.183
48.0, -39.830806732177734, 16371.490234375, 69070.265625, -32929.4375, 60601.0078125, 84813.46875, 19916.677734375, -69177.28125, 0.010000000707805157, -0.02200000174343586, 1.0160000324249268, 192.0, 0.0, 80.0, 255.0, 80.0, 31.0, 192.0, 0.0, 0.0, 0.0, 1.598381207183764E9, 2020-08-25 13:46:47.183
49.0, -8.247793197631836, 21154.78515625, 74508.8671875, -27462.73828125, 64591.12890625, 88489.703125, 25198.103515625, -63911.3671875, 0.010000000707805157, -0.02200000174343586, 1.0160000324249268, 192.0, 0.0, 0.0, 0.0, 0.0, 0.0, 0.0, 0.0, 0.0, 0.0, 1.598381207183766E9, 2020-08-25 13:46:47.183
50.0, 8.024275779724121, 38594.77734375, 93260.8828125, -9940.6923828125, 84149.53125, 106492.515625, 45587.921875, -44127.55078125, 0.010000000707805157, -0.02200000174343586, 1.0160000324249268, 192.0, 0.0, 0.0, 0.0, 0.0, 0.0, 0.0, 0.0, 0.0, 0.0, 1.598381207183769E9, 2020-08-25 13:46:47.183
51.0, 7.845461845397949, 53961.15625, 109801.5078125, 5222.6416015625, 102297.359375, 123134.078125, 64093.66796875, -26269.310546875, 0.010000000707805157, -0.02200000174343586, 1.0160000324249268, 192.0, 0.0, 0.0, 0.0, 0.0, 0.0, 0.0, 0.0, 0.0, 0.0, 1.598381207183771E9, 2020-08-25 13:46:47.183
52.0, -9.790063858032227, 67118.015625, 123712.6796875, 17890.201171875, 118425.3046875, 137946.828125, 80000.265625, -10886.908203125, 0.010000000707805157, -0.02200000174343586, 1.0160000324249268, 192.0, 0.0, 0.0, 0.0, 0.0, 0.0, 0.0, 0.0, 0.0, 0.0, 1.598381207183773E9, 2020-08-25 13:46:47.183
53.0, -44.010581970214844, 64807.94140625, 120412.734375, 14755.3466796875, 116905.34375, 136541.75, 77031.28125, -13667.3984375, 0.010000000707805157, -0.02200000174343586, 1.0160000324249268, 192.0, 0.0, 0.0, 0.0, 0.0, 0.0, 0.0, 0.0, 0.0, 0.0, 1.598381207183775E9, 2020-08-25 13:46:47.183
54.0, -41.35072708129883, 47523.0703125, 101944.09375, -2564.281494140625, 97486.1015625, 118677.2109375, 56791.46484375, -33247.14453125, 0.010000000707805157, -0.02200000174343586, 1.0160000324249268, 192.0, 0.0, 0.0, 0.0, 0.0, 0.0, 0.0, 0.0, 0.0, 0.0, 1.598381207183777E9, 2020-08-25 13:46:47.183
55.0, -38.3332405090332, 29586.556640625, 83018.015625, -20194.576171875, 76597.078125, 99437.1171875, 35634.109375, -53748.3203125, 0.010000000707805157, -0.02200000174343586, 1.0160000324249268, 192.0, 0.0, 0.0, 0.0, 0.0, 0.0, 0.0, 0.0, 0.0, 0.0, 1.598381207183779E9, 2020-08-25 13:46:47.183
56.0, -37.37211608886719, 15816.5859375, 68528.5234375, -33435.79296875, 59671.17578125, 83883.4375, 18969.09765625, -69842.984375, 0.010000000707805157, -0.02200000174343586, 1.0160000324249268, 192.0, 0.0, 0.0, 0.0, 0.0, 0.0, 0.0, 0.0, 0.0, 0.0, 1.598381207183781E9, 2020-08-25 13:46:47.183
57.0, -10.058284759521484, 20494.626953125, 73857.265625, -28070.01171875, 63554.3203125, 87453.859375, 24142.431640625, -64689.8125, 0.010000000707805157, -0.02200000174343586, 1.0160000324249268, 192.0, 0.0, 0.0, 0.0, 0.0, 0.0, 0.0, 0.0, 0.0, 0.0, 1.598381207183783E9, 2020-08-25 13:46:47.183
58.0, 5.051494121551514, 38590.1953125, 93288.0390625, -9886.6904296875, 83805.875, 106122.3203125, 45214.46875, -44217.31640625, 0.010000000707805157, -0.02200000174343586, 1.0160000324249268, 192.0, 0.0, 0.0, 0.0, 0.0, 0.0, 0.0, 0.0, 0.0, 0.0, 1.598381207183785E9, 2020-08-25 13:46:47.183
59.0, 9.432435989379883, 54064.890625, 109950.3046875, 5377.00244140625, 102098.4921875, 122895.34375, 63856.8984375, -26216.875, 0.00800000037997961, -0.024000000208616257, 1.0220000743865967, 192.0, 0.0, 64.0, 255.0, 64.0, 31.0, 240.0, 0.0, 0.0, 0.0, 1.598381207183787E9, 2020-08-25 13:46:47.183
60.0, -6.50435733795166, 66636.3828125, 123261.1953125, 17451.97265625, 117641.3203125, 137133.25, 79175.109375, -11423.9765625, 0.00800000037997961, -0.024000000208616257, 1.0220000743865967, 192.0, 0.0, 0.0, 0.0, 0.0, 0.0, 0.0, 0.0, 0.0, 0.0, 1.59838120718379E9, 2020-08-25 13:46:47.183
61.0, -44.63643264770508, 64074.359375, 119688.8515625, 14059.5146484375, 115852.0625, 135465.890625, 75932.921875, -14474.921875, 0.00800000037997961, -0.024000000208616257, 1.0220000743865967, 192.0, 0.0, 0.0, 0.0, 0.0, 0.0, 0.0, 0.0, 0.0, 0.0, 1.598381207243963E9, 2020-08-25 13:46:47.243
62.0, -45.01641082763672, 47444.81640625, 101889.59375, -2606.928466796875, 97111.3046875, 118260.1484375, 56363.25390625, -33380.2265625, 0.00800000037997961, -0.024000000208616257, 1.0220000743865967, 192.0, 0.0, 0.0, 0.0, 0.0, 0.0, 0.0, 0.0, 0.0, 0.0, 1.598381207243972E9, 2020-08-25 13:46:47.243
63.0, -37.238006591796875, 29788.236328125, 83259.1953125, -19958.296875, 76543.390625, 99322.8359375, 35518.375, -53570.265625, 0.00800000037997961, -0.024000000208616257, 1.0220000743865967, 192.0, 0.0, 0.0, 0.0, 0.0, 0.0, 0.0, 0.0, 0.0, 0.0, 1.598381207243975E9, 2020-08-25 13:46:47.243
64.0, -33.66172409057617, 15475.296875, 68214.4609375, -33743.9140625, 59079.45703125, 83241.359375, 18310.056640625, -70211.03125, 0.00800000037997961, -0.024000000208616257, 1.0220000743865967, 192.0, 0.0, 0.0, 0.0, 0.0, 0.0, 0.0, 0.0, 0.0, 0.0, 1.598381207243978E9, 2020-08-25 13:46:47.243
65.0, -10.214746475219727, 19808.830078125, 73179.5625, -28725.052734375, 62596.83984375, 86464.390625, 23121.224609375, -65422.703125, 0.00800000037997961, -0.024000000208616257, 1.0220000743865967, 192.0, 0.0, 0.0, 0.0, 0.0, 0.0, 0.0, 0.0, 0.0, 0.0, 1.598381207243981E9, 2020-08-25 13:46:47.243
66.0, 1.0281802415847778, 38476.76171875, 93196.7109375, -9970.1513671875, 83440.6484375, 105715.2109375, 44780.0859375, -44359.80859375, 0.00800000037997961, -0.024000000208616257, 1.0220000743865967, 192.0, 0.0, 0.0, 0.0, 0.0, 0.0, 0.0, 0.0, 0.0, 0.0, 1.598381207243984E9, 2020-08-25 13:46:47.243
67.0, 9.141862869262695, 54435.4140625, 110364.5078125, 5779.2666015625, 102263.1640625, 122999.8984375, 63944.0703125, -25835.53125, 0.00800000037997961, -0.024000000208616257, 1.0220000743865967, 192.0, 0.0, 0.0, 0.0, 0.0, 0.0, 0.0, 0.0, 0.0, 0.0, 1.598381207243987E9, 2020-08-25 13:46:47.243
68.0, -3.2857062816619873, 66602.0078125, 123267.5859375, 17448.173828125, 117415.40625, 136851.03125, 78868.328125, -11437.23046875, 0.00800000037997961, -0.024000000208616257, 1.0220000743865967, 192.0, 0.0, 0.0, 0.0, 0.0, 0.0, 0.0, 0.0, 0.0, 0.0, 1.59838120724399E9, 2020-08-25 13:46:47.243
69.0, -43.45178985595703, 63457.6953125, 119098.3125, 13469.6298828125, 115026.5234375, 134601.265625, 75027.71875, -15088.208984375, 0.006000000052154064, -0.024000000208616257, 1.0200001001358032, 192.0, 0.0, 48.0, 255.0, 64.0, 31.0, 224.0, 0.0, 0.0, 0.0, 1.598381207243993E9, 2020-08-25 13:46:47.243
70.0, -48.81620788574219, 47091.45703125, 101560.21875, -2934.493408203125, 96545.6953125, 117653.6328125, 55716.390625, -33732.55859375, 0.006000000052154064, -0.024000000208616257, 1.0200001001358032, 192.0, 0.0, 0.0, 0.0, 0.0, 0.0, 0.0, 0.0, 0.0, 0.0, 1.598381207243996E9, 2020-08-25 13:46:47.243
71.0, -38.3555908203125, 30064.078125, 83575.6484375, -19655.51953125, 76642.296875, 99355.984375, 35526.5546875, -53261.43359375, 0.006000000052154064, -0.024000000208616257, 1.0200001001358032, 192.0, 0.0, 0.0, 0.0, 0.0, 0.0, 0.0, 0.0, 0.0, 0.0, 1.598381207243999E9, 2020-08-25 13:46:47.243
72.0, -30.91246223449707, 15540.5634765625, 68322.265625, -33654.1484375, 58987.50390625, 83082.4140625, 18122.390625, -70091.8046875, 0.006000000052154064, -0.024000000208616257, 1.0200001001358032, 192.0, 0.0, 0.0, 0.0, 0.0, 0.0, 0.0, 0.0, 0.0, 0.0, 1.598381207244002E9, 2020-08-25 13:46:47.244
73.0, -7.756054878234863, 19259.134765625, 72659.953125, -29251.19140625, 61874.296875, 85693.59375, 22302.078125, -65934.3828125, 0.006000000052154064, -0.024000000208616257, 1.0200001001358032, 192.0, 0.0, 0.0, 0.0, 0.0, 0.0, 0.0, 0.0, 0.0, 0.0, 1.598381207244006E9, 2020-08-25 13:46:47.244
74.0, -1.6093255281448364, 37973.578125, 92711.546875, -10450.7587890625, 82747.8125, 104977.78125, 43989.59375, -44844.50390625, 0.006000000052154064, -0.024000000208616257, 1.0200001001358032, 192.0, 0.0, 0.0, 0.0, 0.0, 0.0, 0.0, 0.0, 0.0, 0.0, 1.598381207244009E9, 2020-08-25 13:46:47.244
75.0, 7.10785436630249, 54638.6796875, 110601.03125, 6004.72900390625, 102305.7890625, 122976.7421875, 63879.80859375, -25592.09765625, 0.006000000052154064, -0.024000000208616257, 1.0200001001358032, 192.0, 0.0, 0.0, 0.0, 0.0, 0.0, 0.0, 0.0, 0.0, 0.0, 1.598381207244012E9, 2020-08-25 13:46:47.244
76.0, -0.8270145058631897, 66730.3046875, 123435.0703125, 17597.4375, 117403.3359375, 136772.984375, 78744.1171875, -11254.4609375, 0.006000000052154064, -0.024000000208616257, 1.0200001001358032, 192.0, 0.0, 0.0, 0.0, 0.0, 0.0, 0.0, 0.0, 0.0, 0.0, 1.59838120730432E9, 2020-08-25 13:46:47.304
77.0, -40.88134002685547, 62976.44140625, 118642.203125, 13011.375, 114390.1640625, 133921.40625, 74282.7578125, -15533.3447265625, 0.006000000052154064, -0.024000000208616257, 1.0200001001358032, 192.0, 0.0, 0.0, 0.0, 0.0, 0.0, 0.0, 0.0, 0.0, 0.0, 1.598381207304327E9, 2020-08-25 13:46:47.304
78.0, -50.649051666259766, 46589.81640625, 101079.8828125, -3408.551513671875, 95876.421875, 116948.859375, 54940.47265625, -34214.5078125, 0.006000000052154064, -0.024000000208616257, 1.0200001001358032, 192.0, 0.0, 0.0, 0.0, 0.0, 0.0, 0.0, 0.0, 0.0, 0.0, 1.598381207304329E9, 2020-08-25 13:46:47.304
79.0, -41.26131820678711, 30243.8984375, 83794.4765625, -19446.642578125, 76679.9140625, 99342.9921875, 35451.49609375, -53036.62109375, 0.010000000707805157, -0.02800000086426735, 1.0180000066757202, 192.0, 0.0, 80.0, 255.0, 32.0, 31.0, 208.0, 0.0, 0.0, 0.0, 1.598381207304332E9, 2020-08-25 13:46:47.304
80.0, -29.526653289794922, 15727.6259765625, 68551.859375, -33438.85546875, 59056.28125, 83095.5546875, 18070.400390625, -69839.8359375, 0.010000000707805157, -0.02800000086426735, 1.0180000066757202, 192.0, 0.0, 0.0, 0.0, 0.0, 0.0, 0.0, 0.0, 0.0, 0.0, 1.598381207304334E9, 2020-08-25 13:46:47.304
81.0, -5.051494121551514, 18867.12890625, 72290.921875, -29616.328125, 61354.7109375, 85132.8515625, 21659.0859375, -66270.2578125, 0.010000000707805157, -0.02800000086426735, 1.0180000066757202, 192.0, 0.0, 0.0, 0.0, 0.0, 0.0, 0.0, 0.0, 0.0, 0.0, 1.598381207304336E9, 2020-08-25 13:46:47.304
82.0, -3.1962993144989014, 37431.34765625, 92183.109375, -10959.08203125, 82064.2265625, 104259.5078125, 43184.0390625, -45343.7734375, 0.010000000707805157, -0.02800000086426735, 1.0180000066757202, 192.0, 0.0, 0.0, 0.0, 0.0, 0.0, 0.0, 0.0, 0.0, 0.0, 1.598381207304339E9, 2020-08-25 13:46:47.304
83.0, 3.822148084640503, 54740.0, 110735.8125, 6147.04248046875, 102291.34375, 122907.453125, 63737.13671875, -25426.47265625, 0.010000000707805157, -0.02800000086426735, 1.0180000066757202, 192.0, 0.0, 0.0, 0.0, 0.0, 0.0, 0.0, 0.0, 0.0, 0.0, 1.598381207304341E9, 2020-08-25 13:46:47.304
84.0, 0.20116569101810455, 66987.6171875, 123738.4921875, 17892.212890625, 117577.75, 136881.609375, 78778.921875, -10905.7958984375, 0.010000000707805157, -0.02800000086426735, 1.0180000066757202, 192.0, 0.0, 0.0, 0.0, 0.0, 0.0, 0.0, 0.0, 0.0, 0.0, 1.598381207304344E9, 2020-08-25 13:46:47.304
85.0, -38.02031707763672, 62697.51171875, 118397.390625, 12760.8564453125, 114024.4921875, 133502.703125, 73769.46875, -15727.5810546875, 0.010000000707805157, -0.02800000086426735, 1.0180000066757202, 192.0, 0.0, 0.0, 0.0, 0.0, 0.0, 0.0, 0.0, 0.0, 0.0, 1.598381207304346E9, 2020-08-25 13:46:47.304
86.0, -51.20784378051758, 46002.34765625, 100509.8046875, -3976.419921875, 95176.8125, 116210.984375, 54091.01953125, -34740.95703125, 0.010000000707805157, -0.02800000086426735, 1.0180000066757202, 192.0, 0.0, 0.0, 0.0, 0.0, 0.0, 0.0, 0.0, 0.0, 0.0, 1.598381207304348E9, 2020-08-25 13:46:47.304
87.0, -44.79289245605469, 30179.8828125, 83760.8984375, -19493.42578125, 76510.6015625, 99124.375, 35132.29296875, -53033.9609375, 0.010000000707805157, -0.02800000086426735, 1.0180000066757202, 192.0, 0.0, 0.0, 0.0, 0.0, 0.0, 0.0, 0.0, 0.0, 0.0, 1.598381207304351E9, 2020-08-25 13:46:47.304
88.0, -29.169025421142578, 16040.86328125, 68919.5234375, -33108.33984375, 59296.6484375, 83271.9375, 18159.0703125, -69428.8046875, 0.010000000707805157, -0.02800000086426735, 1.0180000066757202, 192.0, 0.0, 0.0, 0.0, 0.0, 0.0, 0.0, 0.0, 0.0, 0.0, 1.598381207304353E9, 2020-08-25 13:46:47.304
89.0, -1.9669533967971802, 18754.251953125, 72233.75, -29710.697265625, 61168.83203125, 84892.703125, 21329.75390625, -66285.703125, 0.012000000104308128, -0.024000000208616257, 1.0160000324249268, 192.0, 0.0, 96.0, 255.0, 64.0, 31.0, 192.0, 0.0, 0.0, 0.0, 1.598381207304356E9, 2020-08-25 13:46:47.304
90.0, -2.436340093612671, 36854.47265625, 91648.65625, -11520.111328125, 81384.6015625, 103549.171875, 42370.65625, -45853.1484375, 0.012000000104308128, -0.024000000208616257, 1.0160000324249268, 192.0, 0.0, 0.0, 0.0, 0.0, 0.0, 0.0, 0.0, 0.0, 0.0, 1.598381207304358E9, 2020-08-25 13:46:47.304
91.0, 0.15646220743656158, 54540.46875, 110580.8515625, 5960.53955078125, 101982.9609375, 122564.3125, 63296.046875, -25563.3984375, 0.012000000104308128, -0.024000000208616257, 1.0160000324249268, 192.0, 0.0, 0.0, 0.0, 0.0, 0.0, 0.0, 0.0, 0.0, 0.0, 1.59838120736454E9, 2020-08-25 13:46:47.364
92.0, -0.22351743280887604, 67309.1953125, 124120.9296875, 18227.310546875, 117819.75, 137066.796875, 78886.8828125, -10493.673828125, 0.012000000104308128, -0.024000000208616257, 1.0160000324249268, 192.0, 0.0, 0.0, 0.0, 0.0, 0.0, 0.0, 0.0, 0.0, 0.0, 1.598381207364545E9, 2020-08-25 13:46:47.364
93.0, -34.756961822509766, 62704.890625, 118464.84375, 12786.806640625, 113961.90625, 133386.265625, 73577.875, -15622.259765625, 0.012000000104308128, -0.024000000208616257, 1.0160000324249268, 192.0, 0.0, 0.0, 0.0, 0.0, 0.0, 0.0, 0.0, 0.0, 0.0, 1.598381207364547E9, 2020-08-25 13:46:47.364
94.0, -49.71027755737305, 45480.96875, 100035.1171875, -4473.4111328125, 94570.359375, 115567.34375, 53359.19921875, -35181.265625, 0.012000000104308128, -0.024000000208616257, 1.0160000324249268, 192.0, 0.0, 0.0, 0.0, 0.0, 0.0, 0.0, 0.0, 0.0, 0.0, 1.598381207364548E9, 2020-08-25 13:46:47.364
95.0, -48.033897399902344, 29945.345703125, 83574.15625, -19698.525390625, 76191.4609375, 98764.6015625, 34683.19921875, -53189.41796875, 0.012000000104308128, -0.024000000208616257, 1.0160000324249268, 192.0, 0.0, 0.0, 0.0, 0.0, 0.0, 0.0, 0.0, 0.0, 0.0, 1.59838120736455E9, 2020-08-25 13:46:47.364
96.0, -29.593708038330078, 16358.1240234375, 69300.265625, -32756.748046875, 59562.92578125, 83474.8671875, 18285.0234375, -69007.453125, 0.012000000104308128, -0.024000000208616257, 1.0160000324249268, 192.0, 0.0, 0.0, 0.0, 0.0, 0.0, 0.0, 0.0, 0.0, 0.0, 1.598381207364551E9, 2020-08-25 13:46:47.364
97.0, 0.8717179894447327, 18782.974609375, 72317.28125, -29652.359375, 61158.55078125, 84816.578125, 21169.828125, -66150.296875, 0.012000000104308128, -0.024000000208616257, 1.0160000324249268, 192.0, 0.0, 0.0, 0.0, 0.0, 0.0, 0.0, 0.0, 0.0, 0.0, 1.598381207364552E9, 2020-08-25 13:46:47.364
98.0, -0.7152557969093323, 36335.3984375, 91157.828125, -12017.1689453125, 80804.5234375, 102917.3046875, 41635.6640625, -46287.265625, 0.012000000104308128, -0.024000000208616257, 1.0160000324249268, 192.0, 0.0, 0.0, 0.0, 0.0, 0.0, 0.0, 0.0, 0.0, 0.0, 1.598381207364554E9, 2020-08-25 13:46:47.364
99.0, -2.3692848682403564, 54184.62890625, 110245.484375, 5626.49267578125, 101553.625, 122083.9921875, 62711.796875, -25844.404296875, 0.010000000707805157, -0.020000001415610313, 1.0140000581741333, 192.0, 0.0, 80.0, 255.0, 96.0, 31.0, 176.0, 0.0, 0.0, 0.0, 1.598381207364555E9, 2020-08-25 13:46:47.364
100.0, -1.6987324953079224, 67599.5859375, 124452.8125, 18543.20703125, 118067.5625, 137243.46875, 78974.234375, -10101.8486328125, 0.010000000707805157, -0.020000001415610313, 1.0140000581741333, 192.0, 0.0, 0.0, 0.0, 0.0, 0.0, 0.0, 0.0, 0.0, 0.0, 1.598381207364557E9, 2020-08-25 13:46:47.364
101.0, -32.2312126159668, 62849.03515625, 118656.0, 12955.0478515625, 114084.21875, 133437.359375, 73532.859375, -15359.783203125, 0.010000000707805157, -0.020000001415610313, 1.0140000581741333, 192.0, 0.0, 0.0, 0.0, 0.0, 0.0, 0.0, 0.0, 0.0, 0.0, 1.598381207364558E9, 2020-08-25 13:46:47.364
102.0, -47.519805908203125, 45048.6640625, 99629.921875, -4886.7392578125, 94094.5390625, 115039.53125, 52717.52734375, -35519.7578125, 0.010000000707805157, -0.020000001415610313, 1.0140000581741333, 192.0, 0.0, 0.0, 0.0, 0.0, 0.0, 0.0, 0.0, 0.0, 0.0, 1.59838120736456E9, 2020-08-25 13:46:47.364
103.0, -50.000850677490234, 29475.87109375, 83120.859375, -20149.94140625, 75658.8203125, 98187.3203125, 33986.23046875, -53587.94921875, 0.010000000707805157, -0.020000001415610313, 1.0140000581741333, 192.0, 0.0, 0.0, 0.0, 0.0, 0.0, 0.0, 0.0, 0.0, 0.0, 1.598381207364561E9, 2020-08-25 13:46:47.364
104.0, -32.38767623901367, 16567.939453125, 69541.0546875, -32530.4140625, 59730.56640625, 83578.734375, 18283.904296875, -68712.5234375, 0.010000000707805157, -0.020000001415610313, 1.0140000581741333, 192.0, 0.0, 0.0, 0.0, 0.0, 0.0, 0.0, 0.0, 0.0, 0.0, 1.598381207364563E9, 2020-08-25 13:46:47.364
105.0, 2.257526159286499, 19046.681640625, 72622.0234375, -29369.162109375, 61406.90234375, 84996.21875, 21241.7109375, -65780.421875, 0.010000000707805157, -0.020000001415610313, 1.0140000581741333, 192.0, 0.0, 0.0, 0.0, 0.0, 0.0, 0.0, 0.0, 0.0, 0.0, 1.598381207364564E9, 2020-08-25 13:46:47.364
106.0, 1.9222499132156372, 36024.6171875, 90876.9140625, -12310.7587890625, 80468.828125, 102530.625, 41124.37109375, -46503.8984375, 0.010000000707805157, -0.020000001415610313, 1.0140000581741333, 192.0, 0.0, 0.0, 0.0, 0.0, 0.0, 0.0, 0.0, 0.0, 0.0, 1.598381207423981E9, 2020-08-25 13:46:47.423
107.0, -3.6209824085235596, 53659.20703125, 109740.8046875, 5116.31396484375, 100983.75, 121472.6953125, 61966.140625, -26300.916015625, 0.010000000707805157, -0.020000001415610313, 1.0140000581741333, 192.0, 0.0, 0.0, 0.0, 0.0, 0.0, 0.0, 0.0, 0.0, 0.0, 1.598381207423987E9, 2020-08-25 13:46:47.423
108.0, -5.29736328125, 67664.1171875, 124553.484375, 18622.646484375, 118098.765625, 137218.96875, 78827.40625, -9961.859375, 0.010000000707805157, -0.020000001415610313, 1.0140000581741333, 192.0, 0.0, 0.0, 0.0, 0.0, 0.0, 0.0, 0.0, 0.0, 0.0, 1.59838120742399E9, 2020-08-25 13:46:47.423
109.0, -31.76182746887207, 63160.10546875, 119015.28125, 13277.6953125, 114383.328125, 133668.234375, 73651.96875, -14956.53515625, 0.010000000707805157, -0.018000001087784767, 1.0140000581741333, 192.0, 0.0, 80.0, 255.0, 112.0, 31.0, 176.0, 0.0, 0.0, 0.0, 1.598381207423992E9, 2020-08-25 13:46:47.423
110.0, -44.703487396240234, 44856.23828125, 99471.4765625, -5071.74462890625, 93878.125, 114768.0703125, 52324.76171875, -35629.7734375, 0.010000000707805157, -0.018000001087784767, 1.0140000581741333, 192.0, 0.0, 0.0, 0.0, 0.0, 0.0, 0.0, 0.0, 0.0, 0.0, 1.598381207423993E9, 2020-08-25 13:46:47.423
111.0, -50.179664611816406, 28935.29296875, 82598.703125, -20682.73828125, 75064.015625, 97556.328125, 33223.09375, -54073.40625, 0.010000000707805157, -0.018000001087784767, 1.0140000581741333, 192.0, 0.0, 0.0, 0.0, 0.0, 0.0, 0.0, 0.0, 0.0, 0.0, 1.598381207423995E9, 2020-08-25 13:46:47.423
112.0, -36.455692291259766, 16512.283203125, 69517.03125, -32576.97265625, 59625.66796875, 83431.328125, 18010.38671875, -68705.390625, 0.010000000707805157, -0.018000001087784767, 1.0140000581741333, 192.0, 0.0, 0.0, 0.0, 0.0, 0.0, 0.0, 0.0, 0.0, 0.0, 1.598381207423997E9, 2020-08-25 13:46:47.423
113.0, 2.481043577194214, 19393.69140625, 73018.25, -29017.7265625, 61734.59765625, 85265.015625, 21397.056640625, -65339.64453125, 0.010000000707805157, -0.018000001087784767, 1.0140000581741333, 192.0, 0.0, 0.0, 0.0, 0.0, 0.0, 0.0, 0.0, 0.0, 0.0, 1.598381207423999E9, 2020-08-25 13:46:47.423
114.0, 5.565584182739258, 35954.0078125, 90846.625, -12378.529296875, 80379.9765625, 102392.0859375, 40863.3671875, -46479.3125, 0.010000000707805157, -0.018000001087784767, 1.0140000581741333, 192.0, 0.0, 0.0, 0.0, 0.0, 0.0, 0.0, 0.0, 0.0, 0.0, 1.598381207424001E9, 2020-08-25 13:46:47.424
115.0, -3.17394757270813, 53146.0546875, 109251.2734375, 4610.38232421875, 100430.65625, 120884.625, 61241.921875, -26740.822265625, 0.010000000707805157, -0.018000001087784767, 1.0140000581741333, 192.0, 0.0, 0.0, 0.0, 0.0, 0.0, 0.0, 0.0, 0.0, 0.0, 1.598381207424003E9, 2020-08-25 13:46:47.424
116.0, -9.074808120727539, 67571.0859375, 124486.3125, 18540.5703125, 117968.6328125, 137041.734375, 78522.2109375, -9982.6015625, 0.010000000707805157, -0.018000001087784767, 1.0140000581741333, 192.0, 0.0, 0.0, 0.0, 0.0, 0.0, 0.0, 0.0, 0.0, 0.0, 1.598381207424005E9, 2020-08-25 13:46:47.424
117.0, -31.73947525024414, 63526.73828125, 119423.9609375, 13659.1728515625, 114747.9296875, 133962.578125, 73833.421875, -14491.1044921875, 0.010000000707805157, -0.018000001087784767, 1.0140000581741333, 192.0, 0.0, 0.0, 0.0, 0.0, 0.0, 0.0, 0.0, 0.0, 0.0, 1.598381207424007E9, 2020-08-25 13:46:47.424
118.0, -41.373077392578125, 44838.76171875, 99494.15625, -5072.99658203125, 93867.578125, 114693.1875, 52127.6640625, -35544.90625, 0.010000000707805157, -0.018000001087784767, 1.0140000581741333, 192.0, 0.0, 0.0, 0.0, 0.0, 0.0, 0.0, 0.0, 0.0, 0.0, 1.598381207424009E9, 2020-08-25 13:46:47.424
119.0, -49.21854019165039, 28409.580078125, 82095.2734375, -21193.69921875, 74522.7890625, 96968.1875, 32496.193359375, -54520.73046875, 0.010000000707805157, -0.018000001087784767, 1.0200001001358032, 192.0, 0.0, 80.0, 255.0, 112.0, 31.0, 224.0, 0.0, 0.0, 0.0, 1.598381207424011E9, 2020-08-25 13:46:47.424
120.0, -39.830806732177734, 16290.4873046875, 69317.6953125, -32776.41796875, 59384.29296875, 83137.78125, 17581.232421875, -68855.375, 0.010000000707805157, -0.018000001087784767, 1.0200001001358032, 192.0, 0.0, 0.0, 0.0, 0.0, 0.0, 0.0, 0.0, 0.0, 0.0, 1.598381207424013E9, 2020-08-25 13:46:47.424
121.0, 1.6540290117263794, 19749.509765625, 73419.1953125, -28629.72265625, 62102.375, 85558.0078125, 21571.890625, -64883.9375, 0.010000000707805157, -0.018000001087784767, 1.0200001001358032, 192.0, 0.0, 0.0, 0.0, 0.0, 0.0, 0.0, 0.0, 0.0, 0.0, 1.598381207483781E9, 2020-08-25 13:46:47.483
122.0, 7.845461845397949, 36046.12109375, 90988.6953125, -12250.2978515625, 80494.6875, 102431.3359375, 40782.9921875, -46282.4609375, 0.010000000707805157, -0.018000001087784767, 1.0200001001358032, 192.0, 0.0, 0.0, 0.0, 0.0, 0.0, 0.0, 0.0, 0.0, 0.0, 1.598381207483787E9, 2020-08-25 13:46:47.483
123.0, -1.2293459177017212, 52663.1875, 108795.96875, 4157.4912109375, 99942.0, 120342.5234375, 60563.50390625, -27147.109375, 0.010000000707805157, -0.018000001087784767, 1.0200001001358032, 192.0, 0.0, 0.0, 0.0, 0.0, 0.0, 0.0, 0.0, 0.0, 0.0, 1.598381207483789E9, 2020-08-25 13:46:47.483
124.0, -11.82407283782959, 67200.828125, 124135.5234375, 18192.84375, 117573.9296875, 136598.796875, 77938.0234375, -10293.2236328125, 0.010000000707805157, -0.018000001087784767, 1.0200001001358032, 192.0, 0.0, 0.0, 0.0, 0.0, 0.0, 0.0, 0.0, 0.0, 0.0, 1.598381207483791E9, 2020-08-25 13:46:47.483
125.0, -34.019351959228516, 63838.32421875, 119770.9921875, 13988.1904296875, 115057.3203125, 134205.28125, 73945.4921875, -14099.5693359375, 0.010000000707805157, -0.018000001087784767, 1.0200001001358032, 192.0, 0.0, 0.0, 0.0, 0.0, 0.0, 0.0, 0.0, 0.0, 0.0, 1.598381207483792E9, 2020-08-25 13:46:47.483
126.0, -39.38377380371094, 45076.2265625, 99773.4453125, -4818.29833984375, 94123.9296875, 114874.9296875, 52182.984375, -35211.1953125, 0.010000000707805157, -0.018000001087784767, 1.0200001001358032, 192.0, 0.0, 0.0, 0.0, 0.0, 0.0, 0.0, 0.0, 0.0, 0.0, 1.598381207483794E9, 2020-08-25 13:46:47.483
127.0, -46.290462493896484, 28039.009765625, 81753.2265625, -21546.5, 74155.0625, 96540.78125, 31929.041015625, -54809.78515625, 0.010000000707805157, -0.018000001087784767, 1.0200001001358032, 192.0, 0.0, 0.0, 0.0, 0.0, 0.0, 0.0, 0.0, 0.0, 0.0, 1.598381207483796E9, 2020-08-25 13:46:47.483
128.0, -41.23896789550781, 15832.34375, 68875.3125, -33223.296875, 58904.62109375, 82607.28125, 16905.048828125, -69254.8203125, 0.010000000707805157, -0.018000001087784767, 1.0200001001358032, 192.0, 0.0, 0.0, 0.0, 0.0, 0.0, 0.0, 0.0, 0.0, 0.0, 1.598381207483798E9, 2020-08-25 13:46:47.483
129.0, -1.2516976594924927, 19951.859375, 73649.1953125, -28419.416015625, 62299.96484375, 85687.734375, 21571.0859375, -64610.48828125, 0.010000000707805157, -0.018000001087784767, 1.0200001001358032, 192.0, 0.0, 0.0, 0.0, 0.0, 0.0, 0.0, 0.0, 0.0, 0.0, 1.598381207483799E9, 2020-08-25 13:46:47.483
130.0, 9.432435989379883, 36348.60546875, 91327.1875, -11941.4189453125, 80815.859375, 102672.3125, 40900.8515625, -45886.8125, 0.010000000707805157, -0.024000000208616257, 1.0160000324249268, 192.0, 0.0, 80.0, 255.0, 64.0, 31.0, 192.0, 0.0, 0.0, 0.0, 1.598381207483801E9, 2020-08-25 13:46:47.483
131.0, 1.8104912042617798, 52413.51953125, 108573.171875, 3911.085693359375, 99699.390625, 120030.875, 60117.67578125, -27313.361328125, 0.010000000707805157, -0.024000000208616257, 1.0160000324249268, 192.0, 0.0, 0.0, 0.0, 0.0, 0.0, 0.0, 0.0, 0.0, 0.0, 1.598381207483803E9, 2020-08-25 13:46:47.483
132.0, -12.092293739318848, 66690.3125, 123643.1171875, 17687.76171875, 117046.09375, 136017.765625, 77212.828125, -10741.5546875, 0.010000000707805157, -0.024000000208616257, 1.0160000324249268, 192.0, 0.0, 0.0, 0.0, 0.0, 0.0, 0.0, 0.0, 0.0, 0.0, 1.598381207483805E9, 2020-08-25 13:46:47.483
133.0, -37.30506134033203, 63926.27734375, 119896.2734375, 14090.3603515625, 115139.421875, 134221.375, 73838.25, -13934.8369140625, 0.010000000707805157, -0.024000000208616257, 1.0160000324249268, 192.0, 0.0, 0.0, 0.0, 0.0, 0.0, 0.0, 0.0, 0.0, 0.0, 1.598381207483807E9, 2020-08-25 13:46:47.483
134.0, -38.19913101196289, 45430.58984375, 100175.0390625, -4452.2216796875, 94494.4296875, 115170.1953125, 52364.078125, -34758.9296875, 0.010000000707805157, -0.024000000208616257, 1.0160000324249268, 192.0, 0.0, 0.0, 0.0, 0.0, 0.0, 0.0, 0.0, 0.0, 0.0, 1.598381207483809E9, 2020-08-25 13:46:47.483
135.0, -43.295326232910156, 27887.064453125, 81633.0390625, -21690.578125, 74013.375, 96336.8203125, 31598.458984375, -54871.875, 0.010000000707805157, -0.024000000208616257, 1.0160000324249268, 192.0, 0.0, 0.0, 0.0, 0.0, 0.0, 0.0, 0.0, 0.0, 0.0, 1.59838120748381E9, 2020-08-25 13:46:47.483
136.0, -41.48483657836914, 15326.0986328125, 68386.3203125, -33719.08203125, 58382.95703125, 82040.53125, 16200.4990234375, -69693.140625, 0.010000000707805157, -0.024000000208616257, 1.0160000324249268, 192.0, 0.0, 0.0, 0.0, 0.0, 0.0, 0.0, 0.0, 0.0, 0.0, 1.598381207544012E9, 2020-08-25 13:46:47.544
137.0, -5.185604572296143, 19985.900390625, 73715.1796875, -28371.60546875, 62323.61328125, 85658.0703125, 21408.90234375, -64501.3671875, 0.010000000707805157, -0.024000000208616257, 1.0160000324249268, 192.0, 0.0, 0.0, 0.0, 0.0, 0.0, 0.0, 0.0, 0.0, 0.0, 1.598381207544018E9, 2020-08-25 13:46:47.544
138.0, 10.751188278198242, 36695.4375, 91727.1953125, -11580.0810546875, 81182.0234375, 102974.7734375, 41079.93359375, -45437.98828125, 0.010000000707805157, -0.024000000208616257, 1.0160000324249268, 192.0, 0.0, 0.0, 0.0, 0.0, 0.0, 0.0, 0.0, 0.0, 0.0, 1.59838120754402E9, 2020-08-25 13:46:47.544
139.0, 5.342066764831543, 52176.50390625, 108383.109375, 3693.15625, 99476.6171875, 119762.8984375, 59711.765625, -27454.2890625, 0.010000000707805157, -0.024000000208616257, 1.0160000324249268, 192.0, 0.0, 0.0, 0.0, 0.0, 0.0, 0.0, 0.0, 0.0, 0.0, 1.598381207544022E9, 2020-08-25 13:46:47.544
140.0, -12.539328575134277, 66058.5, 123039.4453125, 17078.6328125, 116398.40625, 135344.078125, 76386.8125, -11306.0703125, 0.00800000037997961, -0.026000000536441803, 1.0180000066757202, 192.0, 0.0, 64.0, 255.0, 48.0, 31.0, 208.0, 0.0, 0.0, 0.0, 1.598381207544025E9, 2020-08-25 13:46:47.544
141.0, -41.328372955322266, 63813.4453125, 119814.890625, 14000.23828125, 115012.4375, 134060.015625, 73527.9375, -13979.3837890625, 0.00800000037997961, -0.026000000536441803, 1.0180000066757202, 192.0, 0.0, 0.0, 0.0, 0.0, 0.0, 0.0, 0.0, 0.0, 0.0, 1.598381207544027E9, 2020-08-25 13:46:47.544
142.0, -38.86968231201172, 45827.2421875, 100624.9609375, -4029.214599609375, 94912.7265625, 115532.7890625, 52589.09375, -34262.65234375, 0.00800000037997961, -0.026000000536441803, 1.0180000066757202, 192.0, 0.0, 0.0, 0.0, 0.0, 0.0, 0.0, 0.0, 0.0, 0.0, 1.59838120754403E9, 2020-08-25 13:46:47.544
143.0, -40.34489822387695, 27935.07421875, 81737.015625, -21617.421875, 74090.7578125, 96362.6171875, 31480.150390625, -54719.68359375, 0.00800000037997961, -0.026000000536441803, 1.0180000066757202, 192.0, 0.0, 0.0, 0.0, 0.0, 0.0, 0.0, 0.0, 0.0, 0.0, 1.598381207544032E9, 2020-08-25 13:46:47.544
144.0, -39.71904754638672, 14816.30078125, 67916.3515625, -34209.72265625, 57880.15234375, 81504.1328125, 15501.58203125, -70124.9296875, 0.00800000037997961, -0.026000000536441803, 1.0180000066757202, 192.0, 0.0, 0.0, 0.0, 0.0, 0.0, 0.0, 0.0, 0.0, 0.0, 1.598381207544034E9, 2020-08-25 13:46:47.544
145.0, -8.247793197631836, 19657.46484375, 73420.6484375, -28685.22265625, 61992.875, 85293.4296875, 20883.748046875, -64764.87109375, 0.00800000037997961, -0.026000000536441803, 1.0180000066757202, 192.0, 0.0, 0.0, 0.0, 0.0, 0.0, 0.0, 0.0, 0.0, 0.0, 1.598381207544037E9, 2020-08-25 13:46:47.544
146.0, 8.337200164794922, 37077.4296875, 92154.140625, -11187.4052734375, 81589.2734375, 103325.296875, 41283.671875, -44970.90234375, 0.00800000037997961, -0.026000000536441803, 1.0180000066757202, 192.0, 0.0, 0.0, 0.0, 0.0, 0.0, 0.0, 0.0, 0.0, 0.0, 1.598381207544039E9, 2020-08-25 13:46:47.544
147.0, 7.353723526000977, 52506.1015625, 108756.5625, 4026.197265625, 99848.7890625, 120072.3828125, 59874.30859375, -27026.8125, 0.00800000037997961, -0.026000000536441803, 1.0180000066757202, 192.0, 0.0, 0.0, 0.0, 0.0, 0.0, 0.0, 0.0, 0.0, 0.0, 1.598381207544042E9, 2020-08-25 13:46:47.544
148.0, -9.678304672241211, 65743.765625, 122745.6953125, 16760.1875, 116101.59375, 135003.390625, 75883.5, -11547.89453125, 0.00800000037997961, -0.026000000536441803, 1.0180000066757202, 192.0, 0.0, 0.0, 0.0, 0.0, 0.0, 0.0, 0.0, 0.0, 0.0, 1.598381207544044E9, 2020-08-25 13:46:47.544
149.0, -43.25062561035156, 63396.609375, 119405.921875, 13577.96875, 114584.8984375, 133600.90625, 72902.40625, -14349.0595703125, 0.00800000037997961, -0.026000000536441803, 1.0180000066757202, 192.0, 0.0, 0.0, 0.0, 0.0, 0.0, 0.0, 0.0, 0.0, 0.0, 1.598381207544047E9, 2020-08-25 13:46:47.544
150.0, -41.26131820678711, 46103.35546875, 100929.3671875, -3756.679931640625, 95197.1015625, 115766.4765625, 52677.3359375, -33919.53125, 0.00800000037997961, -0.02200000174343586, 1.0180000066757202, 192.0, 0.0, 64.0, 255.0, 80.0, 31.0, 208.0, 0.0, 0.0, 0.0, 1.598381207544049E9, 2020-08-25 13:46:47.544
151.0, -38.422645568847656, 28204.32421875, 82037.46875, -21355.90625, 74383.0703125, 96598.875, 31578.54296875, -54367.95703125, 0.00800000037997961, -0.02200000174343586, 1.0180000066757202, 192.0, 0.0, 0.0, 0.0, 0.0, 0.0, 0.0, 0.0, 0.0, 0.0, 1.598381207604347E9, 2020-08-25 13:46:47.604
152.0, -37.46152114868164, 14482.8349609375, 67594.5546875, -34550.02734375, 57545.94921875, 81135.15625, 14984.83203125, -70392.6796875, 0.00800000037997961, -0.02200000174343586, 1.0180000066757202, 192.0, 0.0, 0.0, 0.0, 0.0, 0.0, 0.0, 0.0, 0.0, 0.0, 1.598381207604355E9, 2020-08-25 13:46:47.604
153.0, -9.857118606567383, 19208.037109375, 72973.390625, -29136.212890625, 61517.71875, 84792.1875, 20237.1796875, -65169.234375, 0.00800000037997961, -0.02200000174343586, 1.0180000066757202, 192.0, 0.0, 0.0, 0.0, 0.0, 0.0, 0.0, 0.0, 0.0, 0.0, 1.598381207604358E9, 2020-08-25 13:46:47.604
154.0, 5.207956314086914, 37288.765625, 92388.8515625, -10970.2578125, 81795.2890625, 103483.3203125, 41319.6328125, -44693.67578125, 0.00800000037997961, -0.02200000174343586, 1.0180000066757202, 192.0, 0.0, 0.0, 0.0, 0.0, 0.0, 0.0, 0.0, 0.0, 0.0, 1.598381207604362E9, 2020-08-25 13:46:47.604
155.0, 8.739531517028809, 52837.890625, 109125.7265625, 4364.51318359375, 100201.9296875, 120366.84375, 60055.89453125, -26606.041015625, 0.00800000037997961, -0.02200000174343586, 1.0180000066757202, 192.0, 0.0, 0.0, 0.0, 0.0, 0.0, 0.0, 0.0, 0.0, 0.0, 1.598381207604365E9, 2020-08-25 13:46:47.604
156.0, -6.616116046905518, 65512.40234375, 122542.7890625, 16535.23828125, 115886.6796875, 134740.140625, 75497.6171875, -11695.8408203125, 0.00800000037997961, -0.02200000174343586, 1.0180000066757202, 192.0, 0.0, 0.0, 0.0, 0.0, 0.0, 0.0, 0.0, 0.0, 0.0, 1.598381207604368E9, 2020-08-25 13:46:47.604
157.0, -44.14469528198242, 62906.09765625, 118931.9765625, 13094.6796875, 114088.171875, 133065.359375, 72234.421875, -14778.458984375, 0.00800000037997961, -0.02200000174343586, 1.0180000066757202, 192.0, 0.0, 0.0, 0.0, 0.0, 0.0, 0.0, 0.0, 0.0, 0.0, 1.598381207604371E9, 2020-08-25 13:46:47.604
158.0, -45.01641082763672, 46197.8359375, 101052.078125, -3655.158203125, 95297.4609375, 115812.3828125, 52601.20703125, -33753.7265625, 0.00800000037997961, -0.02200000174343586, 1.0180000066757202, 192.0, 0.0, 0.0, 0.0, 0.0, 0.0, 0.0, 0.0, 0.0, 0.0, 1.598381207604374E9, 2020-08-25 13:46:47.604
159.0, -37.79679870605469, 28576.234375, 82449.8828125, -20977.1328125, 74791.6796875, 96936.515625, 31801.94921875, -53898.76953125, 0.00800000037997961, -0.02200000174343586, 1.0180000066757202, 192.0, 0.0, 0.0, 0.0, 0.0, 0.0, 0.0, 0.0, 0.0, 0.0, 1.598381207604377E9, 2020-08-25 13:46:47.604
160.0, -34.019351959228516, 14367.1201171875, 67506.375, -34663.41796875, 57463.40625, 80987.921875, 14710.7333984375, -70419.484375, 0.010000000707805157, -0.024000000208616257, 1.0200001001358032, 192.0, 0.0, 80.0, 255.0, 64.0, 31.0, 224.0, 0.0, 0.0, 0.0, 1.598381207604381E9, 2020-08-25 13:46:47.604
161.0, -9.499490737915039, 18703.513671875, 72479.1484375, -29641.51953125, 61014.5390625, 84243.0078125, 19544.431640625, -65610.953125, 0.010000000707805157, -0.024000000208616257, 1.0200001001358032, 192.0, 0.0, 0.0, 0.0, 0.0, 0.0, 0.0, 0.0, 0.0, 0.0, 1.598381207604384E9, 2020-08-25 13:46:47.604
162.0, 1.36345636844635, 37257.921875, 92378.234375, -10998.6005859375, 81762.8984375, 103404.953125, 41096.1171875, -44658.3125, 0.010000000707805157, -0.024000000208616257, 1.0200001001358032, 192.0, 0.0, 0.0, 0.0, 0.0, 0.0, 0.0, 0.0, 0.0, 0.0, 1.598381207604387E9, 2020-08-25 13:46:47.604
163.0, 9.074808120727539, 53237.7421875, 109563.640625, 4770.71142578125, 100628.9140625, 120733.8125, 60285.08984375, -26110.748046875, 0.010000000707805157, -0.024000000208616257, 1.0200001001358032, 192.0, 0.0, 0.0, 0.0, 0.0, 0.0, 0.0, 0.0, 0.0, 0.0, 1.59838120760439E9, 2020-08-25 13:46:47.604
164.0, -3.509223699569702, 65497.9609375, 122561.2265625, 16528.0859375, 115901.7890625, 134706.515625, 75313.8203125, -11610.4794921875, 0.010000000707805157, -0.024000000208616257, 1.0200001001358032, 192.0, 0.0, 0.0, 0.0, 0.0, 0.0, 0.0, 0.0, 0.0, 0.0, 1.598381207604394E9, 2020-08-25 13:46:47.604
165.0, -43.49649429321289, 62400.94921875, 118444.7734375, 12598.962890625, 113588.6328125, 132535.375, 71544.109375, -15206.8974609375, 0.010000000707805157, -0.024000000208616257, 1.0200001001358032, 192.0, 0.0, 0.0, 0.0, 0.0, 0.0, 0.0, 0.0, 0.0, 0.0, 1.598381207604397E9, 2020-08-25 13:46:47.604
166.0, -48.70444869995117, 46030.12890625, 100901.8984375, -3810.435791015625, 95128.953125, 115608.3359375, 52247.78125, -33854.15234375, 0.010000000707805157, -0.024000000208616257, 1.0200001001358032, 192.0, 0.0, 0.0, 0.0, 0.0, 0.0, 0.0, 0.0, 0.0, 0.0, 1.5983812076646E9, 2020-08-25 13:46:47.664
167.0, -38.3332405090332, 28962.853515625, 82874.96875, -20575.09375, 75206.328125, 97294.390625, 32032.08203125, -53421.31640625, 0.010000000707805157, -0.024000000208616257, 1.0200001001358032, 192.0, 0.0, 0.0, 0.0, 0.0, 0.0, 0.0, 0.0, 0.0, 0.0, 1.598381207664607E9, 2020-08-25 13:46:47.664
168.0, -31.381847381591797, 14452.01171875, 67631.328125, -34563.53125, 57586.02734375, 81056.8359375, 14653.490234375, -70234.6796875, 0.010000000707805157, -0.024000000208616257, 1.0200001001358032, 192.0, 0.0, 0.0, 0.0, 0.0, 0.0, 0.0, 0.0, 0.0, 0.0, 1.598381207664609E9, 2020-08-25 13:46:47.664
169.0, -8.136034965515137, 18228.09375, 72024.46875, -30105.09375, 60556.39453125, 83747.6953125, 18909.373046875, -66011.25, 0.010000000707805157, -0.024000000208616257, 1.0200001001358032, 192.0, 0.0, 0.0, 0.0, 0.0, 0.0, 0.0, 0.0, 0.0, 0.0, 1.598381207664611E9, 2020-08-25 13:46:47.664
170.0, -1.3411046266555786, 36933.57421875, 92066.296875, -11316.1064453125, 81442.2421875, 103047.078125, 40601.7421875, -44929.88671875, 0.006000000052154064, -0.026000000536441803, 1.0220000743865967, 192.0, 0.0, 48.0, 255.0, 48.0, 31.0, 240.0, 0.0, 0.0, 0.0, 1.598381207664614E9, 2020-08-25 13:46:47.664
171.0, 7.197261333465576, 53565.08203125, 109916.328125, 5103.8193359375, 100983.90625, 121030.5546875, 60464.28125, -25712.640625, 0.006000000052154064, -0.026000000536441803, 1.0220000743865967, 192.0, 0.0, 0.0, 0.0, 0.0, 0.0, 0.0, 0.0, 0.0, 0.0, 1.598381207664616E9, 2020-08-25 13:46:47.664
172.0, -1.452863335609436, 65685.2734375, 122772.140625, 16722.076171875, 116133.46875, 134873.078125, 75365.8515625, -11342.861328125, 0.006000000052154064, -0.026000000536441803, 1.0220000743865967, 192.0, 0.0, 0.0, 0.0, 0.0, 0.0, 0.0, 0.0, 0.0, 0.0, 1.598381207664618E9, 2020-08-25 13:46:47.664
173.0, -41.328372955322266, 62004.38671875, 118051.09375, 12208.41015625, 113215.875, 132116.03125, 70991.4375, -15544.095703125, 0.006000000052154064, -0.026000000536441803, 1.0220000743865967, 192.0, 0.0, 0.0, 0.0, 0.0, 0.0, 0.0, 0.0, 0.0, 0.0, 1.59838120766462E9, 2020-08-25 13:46:47.664
174.0, -50.78316116333008, 45621.44921875, 100489.21875, -4212.6552734375, 94725.0546875, 115165.59375, 51661.875, -34219.87109375, 0.006000000052154064, -0.026000000536441803, 1.0220000743865967, 192.0, 0.0, 0.0, 0.0, 0.0, 0.0, 0.0, 0.0, 0.0, 0.0, 1.598381207664623E9, 2020-08-25 13:46:47.664
175.0, -40.92604446411133, 29225.330078125, 83152.1484375, -20305.77734375, 75492.921875, 97525.28125, 32129.759765625, -53098.109375, 0.006000000052154064, -0.026000000536441803, 1.0220000743865967, 192.0, 0.0, 0.0, 0.0, 0.0, 0.0, 0.0, 0.0, 0.0, 0.0, 1.598381207664625E9, 2020-08-25 13:46:47.664
176.0, -29.303136825561523, 14739.09765625, 67938.9296875, -34273.3125, 57913.34375, 81321.3203125, 14785.6337890625, -69876.109375, 0.006000000052154064, -0.026000000536441803, 1.0220000743865967, 192.0, 0.0, 0.0, 0.0, 0.0, 0.0, 0.0, 0.0, 0.0, 0.0, 1.598381207664627E9, 2020-08-25 13:46:47.664
177.0, -5.207956314086914, 17931.552734375, 71734.8359375, -30400.271484375, 60282.4296875, 83427.4140625, 18443.4296875, -66253.96875, 0.006000000052154064, -0.026000000536441803, 1.0220000743865967, 192.0, 0.0, 0.0, 0.0, 0.0, 0.0, 0.0, 0.0, 0.0, 0.0, 1.598381207664629E9, 2020-08-25 13:46:47.664
178.0, -2.995133638381958, 36512.2421875, 91644.9453125, -11733.3466796875, 81026.3671875, 102588.78125, 39996.45703125, -45313.4453125, 0.006000000052154064, -0.026000000536441803, 1.0220000743865967, 192.0, 0.0, 0.0, 0.0, 0.0, 0.0, 0.0, 0.0, 0.0, 0.0, 1.598381207664632E9, 2020-08-25 13:46:47.664
179.0, 4.224479675292969, 53787.90625, 110163.203125, 5334.64599609375, 101233.640625, 121215.5390625, 60523.91796875, -25433.892578125, 0.006000000052154064, -0.026000000536441803, 1.0220000743865967, 192.0, 0.0, 0.0, 0.0, 0.0, 0.0, 0.0, 0.0, 0.0, 0.0, 1.598381207664634E9, 2020-08-25 13:46:47.664
180.0, 0.2905726730823517, 66032.1015625, 123157.8828125, 17074.720703125, 116526.453125, 135194.828125, 75570.1953125, -10920.48046875, 0.004000000189989805, -0.024000000208616257, 1.0220000743865967, 192.0, 0.0, 32.0, 255.0, 64.0, 31.0, 240.0, 0.0, 0.0, 0.0, 1.598381207664636E9, 2020-08-25 13:46:47.664
181.0, -38.132076263427734, 61789.8515625, 117860.703125, 11994.28125, 113034.0625, 131876.0, 70625.03125, -15691.7060546875, 0.004000000189989805, -0.024000000208616257, 1.0220000743865967, 192.0, 0.0, 0.0, 0.0, 0.0, 0.0, 0.0, 0.0, 0.0, 0.0, 1.598381207723875E9, 2020-08-25 13:46:47.723
182.0, -50.96197509765625, 45145.58203125, 100022.6640625, -4688.77001953125, 94252.5390625, 114653.046875, 51011.6171875, -34652.04296875, 0.004000000189989805, -0.024000000208616257, 1.0220000743865967, 192.0, 0.0, 0.0, 0.0, 0.0, 0.0, 0.0, 0.0, 0.0, 0.0, 1.598381207723882E9, 2020-08-25 13:46:47.723
183.0, -44.189395904541016, 29326.58203125, 83273.0546875, -20201.595703125, 75603.8359375, 97587.984375, 32064.537109375, -52942.0703125, 0.004000000189989805, -0.024000000208616257, 1.0220000743865967, 192.0, 0.0, 0.0, 0.0, 0.0, 0.0, 0.0, 0.0, 0.0, 0.0, 1.598381207723883E9, 2020-08-25 13:46:47.723
184.0, -28.47612190246582, 15130.119140625, 68366.921875, -33875.85546875, 58341.5390625, 81690.546875, 15035.0341796875, -69402.8984375, 0.004000000189989805, -0.024000000208616257, 1.0220000743865967, 192.0, 0.0, 0.0, 0.0, 0.0, 0.0, 0.0, 0.0, 0.0, 0.0, 1.598381207723885E9, 2020-08-25 13:46:47.723
185.0, -2.2798779010772705, 17867.626953125, 71695.40625, -30461.716796875, 60246.28515625, 83344.7578125, 18228.205078125, -66241.4296875, 0.004000000189989805, -0.024000000208616257, 1.0220000743865967, 192.0, 0.0, 0.0, 0.0, 0.0, 0.0, 0.0, 0.0, 0.0, 0.0, 1.598381207723886E9, 2020-08-25 13:46:47.723
186.0, -2.995133638381958, 36037.94140625, 91170.1015625, -12212.7919921875, 80543.9296875, 102081.5546875, 39338.80078125, -45739.51171875, 0.004000000189989805, -0.024000000208616257, 1.0220000743865967, 192.0, 0.0, 0.0, 0.0, 0.0, 0.0, 0.0, 0.0, 0.0, 0.0, 1.598381207723888E9, 2020-08-25 13:46:47.723
187.0, 0.0, 53729.65625, 110106.0546875, 5271.4130859375, 101160.546875, 121113.703125, 60274.203125, -25445.962890625, 0.004000000189989805, -0.024000000208616257, 1.0220000743865967, 192.0, 0.0, 0.0, 0.0, 0.0, 0.0, 0.0, 0.0, 0.0, 0.0, 1.598381207723889E9, 2020-08-25 13:46:47.723
188.0, -0.24586917459964752, 66453.546875, 123599.640625, 17495.0234375, 116961.4453125, 135583.640625, 75820.5546875, -10423.9814453125, 0.004000000189989805, -0.024000000208616257, 1.0220000743865967, 192.0, 0.0, 0.0, 0.0, 0.0, 0.0, 0.0, 0.0, 0.0, 0.0, 1.598381207723891E9, 2020-08-25 13:46:47.723
189.0, -35.29340362548828, 61853.30859375, 117946.328125, 12059.5478515625, 113116.5234375, 131921.875, 70521.515625, -15550.5771484375, 0.004000000189989805, -0.024000000208616257, 1.0220000743865967, 192.0, 0.0, 0.0, 0.0, 0.0, 0.0, 0.0, 0.0, 0.0, 0.0, 1.598381207723892E9, 2020-08-25 13:46:47.723
190.0, -50.06790542602539, 44682.765625, 99566.6953125, -5149.08154296875, 93784.4296875, 114167.5625, 50361.00390625, -35063.11328125, 0.006000000052154064, -0.026000000536441803, 1.0160000324249268, 192.0, 0.0, 48.0, 255.0, 48.0, 31.0, 192.0, 0.0, 0.0, 0.0, 1.598381207723894E9, 2020-08-25 13:46:47.723
191.0, -47.743324279785156, 29120.923828125, 83072.7578125, -20409.064453125, 75381.234375, 97347.3671875, 31661.826171875, -53107.765625, 0.006000000052154064, -0.026000000536441803, 1.0160000324249268, 192.0, 0.0, 0.0, 0.0, 0.0, 0.0, 0.0, 0.0, 0.0, 0.0, 1.598381207723896E9, 2020-08-25 13:46:47.723
192.0, -29.750171661376953, 15508.66796875, 68769.7890625, -33499.7421875, 58728.73828125, 82040.7109375, 15240.044921875, -68958.4609375, 0.006000000052154064, -0.026000000536441803, 1.0160000324249268, 192.0, 0.0, 0.0, 0.0, 0.0, 0.0, 0.0, 0.0, 0.0, 0.0, 1.598381207723897E9, 2020-08-25 13:46:47.723
193.0, 0.4246831238269806, 17983.630859375, 71837.25, -30348.013671875, 60382.56640625, 83441.765625, 18182.80859375, -66053.4453125, 0.006000000052154064, -0.026000000536441803, 1.0160000324249268, 192.0, 0.0, 0.0, 0.0, 0.0, 0.0, 0.0, 0.0, 0.0, 0.0, 1.598381207723899E9, 2020-08-25 13:46:47.723
194.0, -0.8717179894447327, 35585.4296875, 90728.296875, -12663.9833984375, 80090.34375, 101607.2734375, 38710.1796875, -46141.75390625, 0.006000000052154064, -0.026000000536441803, 1.0160000324249268, 192.0, 0.0, 0.0, 0.0, 0.0, 0.0, 0.0, 0.0, 0.0, 0.0, 1.5983812077239E9, 2020-08-25 13:46:47.723
195.0, -2.168119192123413, 53412.12890625, 109792.0078125, 4955.1357421875, 100827.5078125, 120764.9765625, 59771.24609375, -25728.443359375, 0.006000000052154064, -0.026000000536441803, 1.0160000324249268, 192.0, 0.0, 0.0, 0.0, 0.0, 0.0, 0.0, 0.0, 0.0, 0.0, 1.598381207723902E9, 2020-08-25 13:46:47.723
196.0, -1.7210842370986938, 66775.65625, 123944.84375, 17819.01171875, 117293.078125, 135882.671875, 75984.53125, -10045.4775390625, 0.006000000052154064, -0.026000000536441803, 1.0160000324249268, 192.0, 0.0, 0.0, 0.0, 0.0, 0.0, 0.0, 0.0, 0.0, 0.0, 1.598381207783799E9, 2020-08-25 13:46:47.783
197.0, -32.67824935913086, 62070.43359375, 118189.6484375, 12274.5498046875, 113356.7109375, 132125.9375, 70595.140625, -15265.9052734375, 0.006000000052154064, -0.026000000536441803, 1.0160000324249268, 192.0, 0.0, 0.0, 0.0, 0.0, 0.0, 0.0, 0.0, 0.0, 0.0, 1.598381207783806E9, 2020-08-25 13:46:47.783
198.0, -47.45275115966797, 44324.6484375, 99217.515625, -5514.4208984375, 93428.0078125, 113789.84375, 49844.859375, -35372.953125, 0.006000000052154064, -0.026000000536441803, 1.0160000324249268, 192.0, 0.0, 0.0, 0.0, 0.0, 0.0, 0.0, 0.0, 0.0, 0.0, 1.598381207783808E9, 2020-08-25 13:46:47.783
199.0, -49.86674118041992, 28755.96484375, 82711.953125, -20778.560546875, 75002.015625, 96948.921875, 31126.814453125, -53437.5859375, 0.006000000052154064, -0.026000000536441803, 1.0160000324249268, 192.0, 0.0, 0.0, 0.0, 0.0, 0.0, 0.0, 0.0, 0.0, 0.0, 1.59838120778381E9, 2020-08-25 13:46:47.783
200.0, -32.34297180175781, 15805.0517578125, 69084.75, -33209.796875, 59031.8046875, 82303.2578125, 15385.2412109375, -68608.921875, 0.006000000052154064, -0.026000000536441803, 1.0160000324249268, 192.0, 0.0, 0.0, 0.0, 0.0, 0.0, 0.0, 0.0, 0.0, 0.0, 1.598381207783812E9, 2020-08-25 13:46:47.783
201.0, 2.436340093612671, 18282.33984375, 72159.40625, -30060.0546875, 60707.22265625, 83719.3046875, 18346.466796875, -65685.09375, 0.00800000037997961, -0.026000000536441803, 1.0180000066757202, 192.0, 0.0, 64.0, 255.0, 48.0, 31.0, 208.0, 0.0, 0.0, 0.0, 1.598381207783813E9, 2020-08-25 13:46:47.783
202.0, 1.8551946878433228, 35306.0546875, 90461.796875, -12952.7685546875, 79823.421875, 101306.2578125, 38283.55078125, -46363.015625, 0.00800000037997961, -0.026000000536441803, 1.0180000066757202, 192.0, 0.0, 0.0, 0.0, 0.0, 0.0, 0.0, 0.0, 0.0, 0.0, 1.598381207783815E9, 2020-08-25 13:46:47.783
203.0, -3.732741117477417, 52980.65234375, 109368.3359375, 4518.47216796875, 100388.921875, 120301.53125, 59177.0234375, -26117.72265625, 0.00800000037997961, -0.026000000536441803, 1.0180000066757202, 192.0, 0.0, 0.0, 0.0, 0.0, 0.0, 0.0, 0.0, 0.0, 0.0, 1.598381207783816E9, 2020-08-25 13:46:47.783
204.0, -5.2750115394592285, 66969.265625, 124159.1328125, 18008.7109375, 117496.453125, 136042.40625, 76030.75, -9796.478515625, 0.00800000037997961, -0.026000000536441803, 1.0180000066757202, 192.0, 0.0, 0.0, 0.0, 0.0, 0.0, 0.0, 0.0, 0.0, 0.0, 1.598381207783818E9, 2020-08-25 13:46:47.783
205.0, -31.627717971801758, 62411.8125, 118566.5, 12616.8212890625, 113734.1875, 132448.140625, 70816.3359375, -14847.123046875, 0.00800000037997961, -0.026000000536441803, 1.0180000066757202, 192.0, 0.0, 0.0, 0.0, 0.0, 0.0, 0.0, 0.0, 0.0, 0.0, 1.598381207783819E9, 2020-08-25 13:46:47.783
206.0, -44.748191833496094, 44123.97265625, 99044.265625, -5711.69775390625, 93257.265625, 113576.2265625, 49518.54296875, -35503.93359375, 0.00800000037997961, -0.026000000536441803, 1.0180000066757202, 192.0, 0.0, 0.0, 0.0, 0.0, 0.0, 0.0, 0.0, 0.0, 0.0, 1.598381207783821E9, 2020-08-25 13:46:47.783
207.0, -50.224369049072266, 28264.763671875, 82235.6640625, -21266.5, 74516.46875, 96433.1328125, 30487.33203125, -53884.734375, 0.00800000037997961, -0.026000000536441803, 1.0180000066757202, 192.0, 0.0, 0.0, 0.0, 0.0, 0.0, 0.0, 0.0, 0.0, 0.0, 1.598381207783822E9, 2020-08-25 13:46:47.783
208.0, -35.874549865722656, 15856.3046875, 69166.109375, -33151.79296875, 59095.41796875, 82324.625, 15296.5947265625, -68509.75, 0.00800000037997961, -0.026000000536441803, 1.0180000066757202, 192.0, 0.0, 0.0, 0.0, 0.0, 0.0, 0.0, 0.0, 0.0, 0.0, 1.598381207783824E9, 2020-08-25 13:46:47.783
209.0, 2.995133638381958, 18670.544921875, 72601.328125, -29657.03125, 61139.41796875, 84094.8359375, 18628.412109375, -65215.99609375, 0.00800000037997961, -0.026000000536441803, 1.0180000066757202, 192.0, 0.0, 0.0, 0.0, 0.0, 0.0, 0.0, 0.0, 0.0, 0.0, 1.598381207783826E9, 2020-08-25 13:46:47.783
210.0, 5.006790637969971, 35235.2421875, 90439.6484375, -13009.318359375, 79796.9296875, 101232.0078125, 38110.484375, -46355.19140625, 0.00800000037997961, -0.026000000536441803, 1.0180000066757202, 192.0, 0.0, 0.0, 0.0, 0.0, 0.0, 0.0, 0.0, 0.0, 0.0, 1.598381207783827E9, 2020-08-25 13:46:47.783
211.0, -3.263354539871216, 52485.46875, 108903.90625, 4034.1767578125, 99910.328125, 119792.0234375, 58556.71875, -26560.263671875, 0.006000000052154064, -0.026000000536441803, 1.0160000324249268, 192.0, 0.0, 48.0, 255.0, 48.0, 31.0, 192.0, 0.0, 0.0, 0.0, 1.598381207843984E9, 2020-08-25 13:46:47.843
212.0, -8.806587219238281, 66868.1015625, 124095.5625, 17921.94140625, 117408.3671875, 135916.078125, 75801.046875, -9846.0322265625, 0.006000000052154064, -0.026000000536441803, 1.0160000324249268, 192.0, 0.0, 0.0, 0.0, 0.0, 0.0, 0.0, 0.0, 0.0, 0.0, 1.59838120784399E9, 2020-08-25 13:46:47.843
213.0, -31.873586654663086, 62796.1953125, 119003.390625, 13018.0126953125, 114161.953125, 132814.21875, 71091.125, -14384.53125, 0.006000000052154064, -0.026000000536441803, 1.0160000324249268, 192.0, 0.0, 0.0, 0.0, 0.0, 0.0, 0.0, 0.0, 0.0, 0.0, 1.598381207843991E9, 2020-08-25 13:46:47.843
214.0, -41.328372955322266, 44182.9375, 99144.8671875, -5639.2109375, 93365.5546875, 113622.4765625, 49468.921875, -35363.07421875, 0.006000000052154064, -0.026000000536441803, 1.0160000324249268, 192.0, 0.0, 0.0, 0.0, 0.0, 0.0, 0.0, 0.0, 0.0, 0.0, 1.598381207843993E9, 2020-08-25 13:46:47.843
215.0, -48.9279670715332, 27801.45703125, 81788.8984375, -21716.796875, 74076.7421875, 95950.1796875, 29894.517578125, -54291.1796875, 0.006000000052154064, -0.026000000536441803, 1.0160000324249268, 192.0, 0.0, 0.0, 0.0, 0.0, 0.0, 0.0, 0.0, 0.0, 0.0, 1.598381207843995E9, 2020-08-25 13:46:47.843
216.0, -38.981441497802734, 15638.5986328125, 68962.328125, -33352.64453125, 58893.828125, 82081.4609375, 14947.8623046875, -68676.3125, 0.006000000052154064, -0.026000000536441803, 1.0160000324249268, 192.0, 0.0, 0.0, 0.0, 0.0, 0.0, 0.0, 0.0, 0.0, 0.0, 1.598381207843996E9, 2020-08-25 13:46:47.843
217.0, 2.1457674503326416, 19048.9375, 73012.125, -29257.626953125, 61565.59765625, 84461.4921875, 18907.318359375, -64760.734375, 0.006000000052154064, -0.026000000536441803, 1.0160000324249268, 192.0, 0.0, 0.0, 0.0, 0.0, 0.0, 0.0, 0.0, 0.0, 0.0, 1.598381207843998E9, 2020-08-25 13:46:47.843
218.0, 7.733703136444092, 35398.03125, 90635.8046875, -12825.05078125, 80020.984375, 101399.0234375, 38187.75390625, -46103.7578125, 0.006000000052154064, -0.026000000536441803, 1.0160000324249268, 192.0, 0.0, 0.0, 0.0, 0.0, 0.0, 0.0, 0.0, 0.0, 0.0, 1.598381207844E9, 2020-08-25 13:46:47.844
219.0, -1.4752150774002075, 52078.265625, 108511.3671875, 3647.3798828125, 99538.90625, 119382.296875, 58040.66015625, -26903.54296875, 0.006000000052154064, -0.026000000536441803, 1.0160000324249268, 192.0, 0.0, 0.0, 0.0, 0.0, 0.0, 0.0, 0.0, 0.0, 0.0, 1.598381207844001E9, 2020-08-25 13:46:47.844
220.0, -11.04176139831543, 66569.5703125, 123807.1328125, 17644.064453125, 117131.765625, 135606.9375, 75380.203125, -10097.869140625, 0.006000000052154064, -0.026000000536441803, 1.0160000324249268, 192.0, 0.0, 0.0, 0.0, 0.0, 0.0, 0.0, 0.0, 0.0, 0.0, 1.598381207844003E9, 2020-08-25 13:46:47.844
221.0, -33.684078216552734, 63133.796875, 119370.71875, 13373.4501953125, 114545.21875, 133154.078125, 71330.984375, -13980.5458984375, 0.006000000052154064, -0.02800000086426735, 1.0180000066757202, 192.0, 0.0, 48.0, 255.0, 32.0, 31.0, 208.0, 0.0, 0.0, 0.0, 1.598381207844005E9, 2020-08-25 13:46:47.844
222.0, -39.54023361206055, 44416.73828125, 99415.03125, -5392.38037109375, 93658.4140625, 113877.0625, 49621.5859375, -35053.5703125, 0.006000000052154064, -0.02800000086426735, 1.0180000066757202, 192.0, 0.0, 0.0, 0.0, 0.0, 0.0, 0.0, 0.0, 0.0, 0.0, 1.598381207844007E9, 2020-08-25 13:46:47.844
223.0, -46.69279098510742, 27459.384765625, 81467.2578125, -22053.705078125, 73770.0078125, 95629.1640625, 29450.947265625, -54579.31640625, 0.006000000052154064, -0.02800000086426735, 1.0180000066757202, 192.0, 0.0, 0.0, 0.0, 0.0, 0.0, 0.0, 0.0, 0.0, 0.0, 1.598381207844008E9, 2020-08-25 13:46:47.844
224.0, -41.28367233276367, 15249.65625, 68580.046875, -33740.26953125, 58518.25, 81698.3515625, 14434.5771484375, -69031.953125, 0.006000000052154064, -0.02800000086426735, 1.0180000066757202, 192.0, 0.0, 0.0, 0.0, 0.0, 0.0, 0.0, 0.0, 0.0, 0.0, 1.59838120784401E9, 2020-08-25 13:46:47.844
225.0, -0.9164214730262756, 19319.505859375, 73300.4453125, -28989.228515625, 61863.45703125, 84731.4609375, 19061.8125, -64440.5, 0.006000000052154064, -0.02800000086426735, 1.0180000066757202, 192.0, 0.0, 0.0, 0.0, 0.0, 0.0, 0.0, 0.0, 0.0, 0.0, 1.598381207844012E9, 2020-08-25 13:46:47.844
226.0, 9.36538028717041, 35721.953125, 90981.5, -12507.455078125, 80386.6171875, 101726.296875, 38407.40234375, -45714.45703125, 0.006000000052154064, -0.02800000086426735, 1.0180000066757202, 192.0, 0.0, 0.0, 0.0, 0.0, 0.0, 0.0, 0.0, 0.0, 0.0, 1.598381207904276E9, 2020-08-25 13:46:47.904
227.0, 1.4305115938186646, 51840.46484375, 108284.1640625, 3400.41552734375, 99329.453125, 119148.9453125, 57686.36328125, -27086.625, 0.006000000052154064, -0.02800000086426735, 1.0180000066757202, 192.0, 0.0, 0.0, 0.0, 0.0, 0.0, 0.0, 0.0, 0.0, 0.0, 1.598381207904283E9, 2020-08-25 13:46:47.904
228.0, -12.494625091552734, 66117.734375, 123353.328125, 17180.734375, 116682.2265625, 135142.625, 74784.265625, -10516.5849609375, 0.006000000052154064, -0.02800000086426735, 1.0180000066757202, 192.0, 0.0, 0.0, 0.0, 0.0, 0.0, 0.0, 0.0, 0.0, 0.0, 1.598381207904285E9, 2020-08-25 13:46:47.904
229.0, -37.26035690307617, 63271.66015625, 119518.6875, 13501.1240234375, 114694.265625, 133268.828125, 71328.546875, -13799.6533203125, 0.006000000052154064, -0.02800000086426735, 1.0180000066757202, 192.0, 0.0, 0.0, 0.0, 0.0, 0.0, 0.0, 0.0, 0.0, 0.0, 1.598381207904286E9, 2020-08-25 13:46:47.904
230.0, -38.60145950317383, 44782.41015625, 99807.2890625, -5033.478515625, 94060.453125, 114227.4453125, 49867.2109375, -34620.32421875, 0.006000000052154064, -0.02800000086426735, 1.0180000066757202, 192.0, 0.0, 0.0, 0.0, 0.0, 0.0, 0.0, 0.0, 0.0, 0.0, 1.598381207904288E9, 2020-08-25 13:46:47.904
231.0, -43.608253479003906, 27319.486328125, 81351.046875, -22196.779296875, 73667.59375, 95477.90625, 29192.271484375, -54652.1796875, 0.006000000052154064, -0.02200000174343586, 1.0180000066757202, 192.0, 0.0, 48.0, 255.0, 80.0, 31.0, 208.0, 0.0, 0.0, 0.0, 1.59838120790429E9, 2020-08-25 13:46:47.904
232.0, -41.06015396118164, 14769.00390625, 68115.28125, -34220.67578125, 58054.25, 81199.5234375, 13813.2880859375, -69463.3203125, 0.006000000052154064, -0.02200000174343586, 1.0180000066757202, 192.0, 0.0, 0.0, 0.0, 0.0, 0.0, 0.0, 0.0, 0.0, 0.0, 1.598381207904291E9, 2020-08-25 13:46:47.904
233.0, -4.559755802154541, 19349.14453125, 73358.625, -28957.064453125, 61915.58203125, 84740.53125, 18952.78125, -64358.5390625, 0.006000000052154064, -0.02200000174343586, 1.0180000066757202, 192.0, 0.0, 0.0, 0.0, 0.0, 0.0, 0.0, 0.0, 0.0, 0.0, 1.598381207904293E9, 2020-08-25 13:46:47.904
234.0, 9.83476734161377, 36096.74609375, 91400.7265625, -12130.0458984375, 80812.375, 102096.125, 38665.74609375, -45267.109375, 0.006000000052154064, -0.02200000174343586, 1.0180000066757202, 192.0, 0.0, 0.0, 0.0, 0.0, 0.0, 0.0, 0.0, 0.0, 0.0, 1.598381207904294E9, 2020-08-25 13:46:47.904
235.0, 4.403293609619141, 51755.171875, 108232.4140625, 3315.12109375, 99292.953125, 119065.9296875, 57484.3046875, -27107.345703125, 0.006000000052154064, -0.02200000174343586, 1.0180000066757202, 192.0, 0.0, 0.0, 0.0, 0.0, 0.0, 0.0, 0.0, 0.0, 0.0, 1.598381207904296E9, 2020-08-25 13:46:47.904
236.0, -12.092293739318848, 65631.2265625, 122884.0546875, 16693.890625, 116221.6484375, 134649.296875, 74161.71875, -10963.5078125, 0.006000000052154064, -0.02200000174343586, 1.0180000066757202, 192.0, 0.0, 0.0, 0.0, 0.0, 0.0, 0.0, 0.0, 0.0, 0.0, 1.598381207904298E9, 2020-08-25 13:46:47.904
237.0, -40.63547134399414, 63205.43359375, 119479.5703125, 13441.0869140625, 114656.9609375, 133188.078125, 71128.5703125, -13821.9609375, 0.006000000052154064, -0.02200000174343586, 1.0180000066757202, 192.0, 0.0, 0.0, 0.0, 0.0, 0.0, 0.0, 0.0, 0.0, 0.0, 1.598381207904299E9, 2020-08-25 13:46:47.904
238.0, -38.86968231201172, 45177.45703125, 100248.8671875, -4627.83935546875, 94515.7109375, 114621.890625, 50154.0703125, -34151.9453125, 0.006000000052154064, -0.02200000174343586, 1.0180000066757202, 192.0, 0.0, 0.0, 0.0, 0.0, 0.0, 0.0, 0.0, 0.0, 0.0, 1.598381207904301E9, 2020-08-25 13:46:47.904
239.0, -40.479007720947266, 27339.22265625, 81411.7109375, -22164.748046875, 73747.03125, 95506.71875, 29102.88671875, -54560.62890625, 0.006000000052154064, -0.02200000174343586, 1.0180000066757202, 192.0, 0.0, 0.0, 0.0, 0.0, 0.0, 0.0, 0.0, 0.0, 0.0, 1.598381207904303E9, 2020-08-25 13:46:47.904
240.0, -39.875511169433594, 14281.2666015625, 67649.875, -34695.8515625, 57596.28515625, 80710.1796875, 13194.6591796875, -69908.03125, 0.006000000052154064, -0.02200000174343586, 1.0180000066757202, 192.0, 0.0, 0.0, 0.0, 0.0, 0.0, 0.0, 0.0, 0.0, 0.0, 1.598381207904305E9, 2020-08-25 13:46:47.904
241.0, -7.756054878234863, 19108.3046875, 73137.34375, -29185.923828125, 61694.56640625, 84486.9765625, 18568.95703125, -64564.95703125, 0.006000000052154064, -0.02200000174343586, 1.0160000324249268, 192.0, 0.0, 48.0, 255.0, 80.0, 31.0, 192.0, 0.0, 0.0, 0.0, 1.598381207964553E9, 2020-08-25 13:46:47.964
242.0, 8.516014099121094, 36471.96484375, 91814.90625, -11742.287109375, 81236.5859375, 102465.734375, 38918.09765625, -44829.86328125, 0.006000000052154064, -0.02200000174343586, 1.0160000324249268, 192.0, 0.0, 0.0, 0.0, 0.0, 0.0, 0.0, 0.0, 0.0, 0.0, 1.598381207964572E9, 2020-08-25 13:46:47.964
243.0, 7.3984270095825195, 51923.3671875, 108440.734375, 3497.690185546875, 99525.046875, 119243.1796875, 57539.734375, -26863.80078125, 0.006000000052154064, -0.02200000174343586, 1.0160000324249268, 192.0, 0.0, 0.0, 0.0, 0.0, 0.0, 0.0, 0.0, 0.0, 0.0, 1.598381207964574E9, 2020-08-25 13:46:47.964
244.0, -9.70065689086914, 65203.25390625, 122477.0078125, 16276.7412109375, 115833.1484375, 134226.328125, 73601.9921875, -11336.2900390625, 0.006000000052154064, -0.02200000174343586, 1.0160000324249268, 192.0, 0.0, 0.0, 0.0, 0.0, 0.0, 0.0, 0.0, 0.0, 0.0, 1.598381207964576E9, 2020-08-25 13:46:47.964
245.0, -43.228271484375, 62854.51171875, 119139.0625, 13096.9150390625, 114321.8828125, 132827.53125, 70627.4609375, -14133.6552734375, 0.006000000052154064, -0.02200000174343586, 1.0160000324249268, 192.0, 0.0, 0.0, 0.0, 0.0, 0.0, 0.0, 0.0, 0.0, 0.0, 1.598381207964578E9, 2020-08-25 13:46:47.964
246.0, -40.88134002685547, 45492.90625, 100587.1796875, -4305.8173828125, 94863.796875, 114928.28125, 50331.38671875, -33776.12109375, 0.006000000052154064, -0.02200000174343586, 1.0160000324249268, 192.0, 0.0, 0.0, 0.0, 0.0, 0.0, 0.0, 0.0, 0.0, 0.0, 1.59838120796458E9, 2020-08-25 13:46:47.964
247.0, -38.512054443359375, 27584.48828125, 81685.4765625, -21913.76171875, 74041.4453125, 95757.125, 29223.072265625, -54231.36328125, 0.006000000052154064, -0.02200000174343586, 1.0160000324249268, 192.0, 0.0, 0.0, 0.0, 0.0, 0.0, 0.0, 0.0, 0.0, 0.0, 1.598381207964582E9, 2020-08-25 13:46:47.964
248.0, -37.30506134033203, 13923.19140625, 67303.9140625, -35052.921875, 57267.9375, 80357.2421875, 12691.9677734375, -70195.515625, 0.006000000052154064, -0.02200000174343586, 1.0160000324249268, 192.0, 0.0, 0.0, 0.0, 0.0, 0.0, 0.0, 0.0, 0.0, 0.0, 1.598381207964584E9, 2020-08-25 13:46:47.964
249.0, -9.745360374450684, 18680.068359375, 72711.65625, -29614.271484375, 61275.13671875, 84050.2890625, 17977.73046875, -64940.15234375, 0.006000000052154064, -0.02200000174343586, 1.0160000324249268, 192.0, 0.0, 0.0, 0.0, 0.0, 0.0, 0.0, 0.0, 0.0, 0.0, 1.598381207964586E9, 2020-08-25 13:46:47.964
250.0, 5.476177215576172, 36703.171875, 92067.4609375, -11507.884765625, 81499.6171875, 102689.0546875, 39002.875, -44523.7578125, 0.006000000052154064, -0.02200000174343586, 1.0160000324249268, 192.0, 0.0, 0.0, 0.0, 0.0, 0.0, 0.0, 0.0, 0.0, 0.0, 1.598381207964588E9, 2020-08-25 13:46:47.964
251.0, 8.91834545135498, 52222.8359375, 108773.84375, 3800.77978515625, 99877.7421875, 119545.0859375, 57708.73828125, -26468.197265625, 0.006000000052154064, -0.020000001415610313, 1.0120000839233398, 192.0, 0.0, 48.0, 255.0, 96.0, 31.0, 160.0, 0.0, 0.0, 0.0, 1.59838120796459E9, 2020-08-25 13:46:47.964
252.0, -6.772578239440918, 64941.58203125, 122235.625, 16019.740234375, 115608.1328125, 133969.75, 73193.84375, -11512.421875, 0.006000000052154064, -0.020000001415610313, 1.0120000839233398, 192.0, 0.0, 0.0, 0.0, 0.0, 0.0, 0.0, 0.0, 0.0, 0.0, 1.598381207964592E9, 2020-08-25 13:46:47.964
253.0, -43.96588134765625, 62371.33203125, 118666.1015625, 12619.861328125, 113849.65625, 132339.328125, 69976.46875, -14556.6181640625, 0.006000000052154064, -0.020000001415610313, 1.0120000839233398, 192.0, 0.0, 0.0, 0.0, 0.0, 0.0, 0.0, 0.0, 0.0, 0.0, 1.598381207964594E9, 2020-08-25 13:46:47.964
254.0, -44.39056396484375, 45618.9921875, 100741.453125, -4171.21533203125, 95012.859375, 115044.7578125, 50303.3125, -33581.86328125, 0.006000000052154064, -0.020000001415610313, 1.0120000839233398, 192.0, 0.0, 0.0, 0.0, 0.0, 0.0, 0.0, 0.0, 0.0, 0.0, 1.598381207964596E9, 2020-08-25 13:46:47.964
255.0, -37.37211608886719, 27962.322265625, 82104.7734375, -21525.66796875, 74468.609375, 96132.703125, 29470.349609375, -53767.92578125, 0.006000000052154064, -0.020000001415610313, 1.0120000839233398, 192.0, 0.0, 0.0, 0.0, 0.0, 0.0, 0.0, 0.0, 0.0, 0.0, 1.598381207964597E9, 2020-08-25 13:46:47.964
0.0, -34.22052001953125, 13796.3681640625, 67207.9609375, -35167.94140625, 57185.4609375, 80231.6484375, 12431.056640625, -70246.5234375, 0.006000000052154064, -0.020000001415610313, 1.0120000839233398, 192.0, 0.0, 0.0, 0.0, 0.0, 0.0, 0.0, 0.0, 0.0, 0.0, 1.598381208023956E9, 2020-08-25 13:46:48.023
1.0, -9.83476734161377, 18183.92578125, 72231.8046875, -30095.03515625, 60793.30078125, 83544.3125, 17326.423828125, -65385.01953125, 0.006000000052154064, -0.020000001415610313, 1.0120000839233398, 192.0, 0.0, 0.0, 0.0, 0.0, 0.0, 0.0, 0.0, 0.0, 0.0, 1.598381208023965E9, 2020-08-25 13:46:48.023
2.0, 1.5199185609817505, 36698.72265625, 92087.8203125, -11493.9375, 81506.953125, 102669.5859375, 38845.20703125, -44473.890625, 0.006000000052154064, -0.020000001415610313, 1.0120000839233398, 192.0, 0.0, 0.0, 0.0, 0.0, 0.0, 0.0, 0.0, 0.0, 0.0, 1.598381208023968E9, 2020-08-25 13:46:48.023
3.0, 8.851290702819824, 52631.8515625, 109225.9296875, 4230.38037109375, 100330.25, 119953.2890625, 57990.703125, -25977.28515625, 0.006000000052154064, -0.020000001415610313, 1.0120000839233398, 192.0, 0.0, 0.0, 0.0, 0.0, 0.0, 0.0, 0.0, 0.0, 0.0, 1.59838120802397E9, 2020-08-25 13:46:48.023
4.0, -3.8892033100128174, 64922.3828125, 122253.21875, 16021.103515625, 115637.1484375, 133954.796875, 73050.7265625, -11449.703125, 0.006000000052154064, -0.020000001415610313, 1.0120000839233398, 192.0, 0.0, 0.0, 0.0, 0.0, 0.0, 0.0, 0.0, 0.0, 0.0, 1.598381208023973E9, 2020-08-25 13:46:48.023
5.0, -43.51884460449219, 61881.8984375, 118192.1328125, 12150.6533203125, 113383.0, 131838.59375, 69337.3203125, -14991.470703125, 0.00800000037997961, -0.020000001415610313, 1.0120000839233398, 192.0, 0.0, 64.0, 255.0, 96.0, 31.0, 160.0, 0.0, 0.0, 0.0, 1.598381208023975E9, 2020-08-25 13:46:48.023
6.0, -47.85508346557617, 45495.6796875, 100634.1640625, -4273.58642578125, 94906.953125, 114897.4375, 50021.2578125, -33656.8515625, 0.00800000037997961, -0.020000001415610313, 1.0120000839233398, 192.0, 0.0, 0.0, 0.0, 0.0, 0.0, 0.0, 0.0, 0.0, 0.0, 1.598381208023978E9, 2020-08-25 13:46:48.023
7.0, -37.97561264038086, 28375.11328125, 82555.515625, -21090.63671875, 74929.125, 96534.453125, 29749.701171875, -53282.8671875, 0.00800000037997961, -0.020000001415610313, 1.0120000839233398, 192.0, 0.0, 0.0, 0.0, 0.0, 0.0, 0.0, 0.0, 0.0, 0.0, 1.59838120802398E9, 2020-08-25 13:46:48.023
8.0, -31.56066131591797, 13891.162109375, 67339.4765625, -35052.296875, 57333.80859375, 80327.8984375, 12398.51171875, -70073.40625, 0.00800000037997961, -0.020000001415610313, 1.0120000839233398, 192.0, 0.0, 0.0, 0.0, 0.0, 0.0, 0.0, 0.0, 0.0, 0.0, 1.598381208023982E9, 2020-08-25 13:46:48.023
9.0, -8.381903648376465, 17733.091796875, 71794.203125, -30529.509765625, 60366.203125, 83087.53125, 16722.0546875, -65785.6328125, 0.00800000037997961, -0.020000001415610313, 1.0120000839233398, 192.0, 0.0, 0.0, 0.0, 0.0, 0.0, 0.0, 0.0, 0.0, 0.0, 1.598381208023985E9, 2020-08-25 13:46:48.023
10.0, -1.2516976594924927, 36460.8125, 91856.859375, -11716.046875, 81279.9921875, 102414.3671875, 38443.16796875, -44674.1171875, 0.00800000037997961, -0.020000001415610313, 1.0120000839233398, 192.0, 0.0, 0.0, 0.0, 0.0, 0.0, 0.0, 0.0, 0.0, 0.0, 1.598381208023987E9, 2020-08-25 13:46:48.023
11.0, 7.756054878234863, 53023.765625, 109640.1953125, 4633.9189453125, 100758.4453125, 120333.671875, 58241.40234375, -25523.568359375, 0.00800000037997961, -0.020000001415610313, 1.0120000839233398, 192.0, 0.0, 0.0, 0.0, 0.0, 0.0, 0.0, 0.0, 0.0, 0.0, 1.59838120802399E9, 2020-08-25 13:46:48.023
12.0, -1.0281802415847778, 65124.82421875, 122479.9296875, 16232.171875, 115889.8984375, 134158.609375, 73124.984375, -11176.296875, 0.00800000037997961, -0.020000001415610313, 1.0120000839233398, 192.0, 0.0, 0.0, 0.0, 0.0, 0.0, 0.0, 0.0, 0.0, 0.0, 1.598381208023992E9, 2020-08-25 13:46:48.023
13.0, -41.39542770385742, 61485.3125, 117804.21875, 11759.8115234375, 113015.984375, 131440.40625, 68793.1875, -15341.3427734375, 0.00800000037997961, -0.020000001415610313, 1.0120000839233398, 192.0, 0.0, 0.0, 0.0, 0.0, 0.0, 0.0, 0.0, 0.0, 0.0, 1.598381208023995E9, 2020-08-25 13:46:48.023
14.0, -50.649051666259766, 45142.07421875, 100284.8046875, -4622.6533203125, 94565.9140625, 114530.1796875, 49508.41796875, -33979.3203125, 0.00800000037997961, -0.020000001415610313, 1.0120000839233398, 192.0, 0.0, 0.0, 0.0, 0.0, 0.0, 0.0, 0.0, 0.0, 0.0, 1.598381208023997E9, 2020-08-25 13:46:48.023
15.0, -40.523712158203125, 28696.419921875, 82897.1171875, -20764.009765625, 75286.84375, 96846.1484375, 29931.734375, -52905.99609375, 0.00800000037997961, -0.020000001415610313, 1.0120000839233398, 192.0, 0.0, 0.0, 0.0, 0.0, 0.0, 0.0, 0.0, 0.0, 0.0, 1.598381208083829E9, 2020-08-25 13:46:48.083
16.0, -29.191377639770508, 14168.94921875, 67645.7421875, -34767.6015625, 57666.8046875, 80612.3671875, 12553.208984375, -69724.765625, 0.010000000707805157, -0.02200000174343586, 1.0120000839233398, 192.0, 0.0, 80.0, 255.0, 80.0, 31.0, 160.0, 0.0, 0.0, 0.0, 1.598381208083845E9, 2020-08-25 13:46:48.083
17.0, -5.498528957366943, 17406.890625, 71486.265625, -30848.78125, 60077.93359375, 82770.1640625, 16259.75390625, -66056.1953125, 0.010000000707805157, -0.02200000174343586, 1.0120000839233398, 192.0, 0.0, 0.0, 0.0, 0.0, 0.0, 0.0, 0.0, 0.0, 0.0, 1.598381208083847E9, 2020-08-25 13:46:48.083
18.0, -3.218651056289673, 36036.91015625, 91439.6640625, -12137.2646484375, 80867.2421875, 101982.46875, 37858.78125, -45066.16796875, 0.010000000707805157, -0.02200000174343586, 1.0120000839233398, 192.0, 0.0, 0.0, 0.0, 0.0, 0.0, 0.0, 0.0, 0.0, 0.0, 1.598381208083849E9, 2020-08-25 13:46:48.083
19.0, 4.269183158874512, 53344.89453125, 109983.96875, 4957.974609375, 101105.5625, 120645.59375, 58414.62890625, -25155.12109375, 0.010000000707805157, -0.02200000174343586, 1.0120000839233398, 192.0, 0.0, 0.0, 0.0, 0.0, 0.0, 0.0, 0.0, 0.0, 0.0, 1.598381208083851E9, 2020-08-25 13:46:48.083
20.0, 1.5199185609817505, 65378.0234375, 122759.640625, 16488.1875, 116180.609375, 134414.3125, 73243.8671875, -10858.208984375, 0.010000000707805157, -0.02200000174343586, 1.0120000839233398, 192.0, 0.0, 0.0, 0.0, 0.0, 0.0, 0.0, 0.0, 0.0, 0.0, 1.598381208083852E9, 2020-08-25 13:46:48.083
21.0, -38.243831634521484, 61028.796875, 117356.3984375, 11306.115234375, 112570.4453125, 130985.265625, 68186.3203125, -15748.9267578125, 0.010000000707805157, -0.02200000174343586, 1.0120000839233398, 192.0, 0.0, 0.0, 0.0, 0.0, 0.0, 0.0, 0.0, 0.0, 0.0, 1.598381208083854E9, 2020-08-25 13:46:48.083
22.0, -52.1466178894043, 44566.15625, 99706.8125, -5193.9638671875, 93977.2578125, 113945.5703125, 48760.26171875, -34527.3203125, 0.010000000707805157, -0.02200000174343586, 1.0120000839233398, 192.0, 0.0, 0.0, 0.0, 0.0, 0.0, 0.0, 0.0, 0.0, 0.0, 1.598381208083856E9, 2020-08-25 13:46:48.083
23.0, -44.278804779052734, 28752.8359375, 82966.7890625, -20698.85546875, 75345.0, 96895.5234375, 29824.177734375, -52805.078125, 0.010000000707805157, -0.02200000174343586, 1.0120000839233398, 192.0, 0.0, 0.0, 0.0, 0.0, 0.0, 0.0, 0.0, 0.0, 0.0, 1.598381208083858E9, 2020-08-25 13:46:48.083
24.0, -28.87845230102539, 14540.904296875, 68043.265625, -34387.21875, 58071.3046875, 80989.9140625, 12785.5322265625, -69278.0, 0.010000000707805157, -0.02200000174343586, 1.0120000839233398, 192.0, 0.0, 0.0, 0.0, 0.0, 0.0, 0.0, 0.0, 0.0, 0.0, 1.598381208083859E9, 2020-08-25 13:46:48.083
25.0, -2.302229642868042, 17320.34375, 71417.6640625, -30928.509765625, 60025.2265625, 82694.65625, 16034.1572265625, -66070.59375, 0.010000000707805157, -0.02200000174343586, 1.0120000839233398, 192.0, 0.0, 0.0, 0.0, 0.0, 0.0, 0.0, 0.0, 0.0, 0.0, 1.598381208083861E9, 2020-08-25 13:46:48.083
26.0, -2.4139883518218994, 35517.12109375, 90927.765625, -12646.5498046875, 80359.5703125, 101465.71875, 37181.69921875, -45537.02734375, 0.006000000052154064, -0.02200000174343586, 1.0120000839233398, 192.0, 0.0, 48.0, 255.0, 80.0, 31.0, 160.0, 0.0, 0.0, 0.0, 1.598381208083863E9, 2020-08-25 13:46:48.083
27.0, 0.7599592804908752, 53172.16015625, 109828.84375, 4799.6123046875, 100943.109375, 120466.6875, 58084.3125, -25280.515625, 0.006000000052154064, -0.02200000174343586, 1.0120000839233398, 192.0, 0.0, 0.0, 0.0, 0.0, 0.0, 0.0, 0.0, 0.0, 0.0, 1.598381208083865E9, 2020-08-25 13:46:48.083
28.0, -0.08940697461366653, 65859.078125, 123286.96875, 16983.2578125, 116708.5546875, 134902.421875, 73595.8203125, -10300.8232421875, 0.006000000052154064, -0.02200000174343586, 1.0120000839233398, 192.0, 0.0, 0.0, 0.0, 0.0, 0.0, 0.0, 0.0, 0.0, 0.0, 1.598381208083866E9, 2020-08-25 13:46:48.083
29.0, -35.02518081665039, 61297.51171875, 117673.953125, 11584.193359375, 112904.9140625, 131280.0, 68338.984375, -15391.90234375, 0.006000000052154064, -0.02200000174343586, 1.0120000839233398, 192.0, 0.0, 0.0, 0.0, 0.0, 0.0, 0.0, 0.0, 0.0, 0.0, 1.598381208083868E9, 2020-08-25 13:46:48.083
30.0, -50.06790542602539, 44175.42578125, 99347.3984375, -5573.787109375, 93629.015625, 113577.34375, 48235.3515625, -34853.34375, 0.006000000052154064, -0.02200000174343586, 1.0120000839233398, 192.0, 0.0, 0.0, 0.0, 0.0, 0.0, 0.0, 0.0, 0.0, 0.0, 1.598381208143985E9, 2020-08-25 13:46:48.143
31.0, -47.519805908203125, 28593.06640625, 82840.125, -20844.095703125, 75218.7109375, 96743.0625, 29525.625, -52911.91796875, 0.006000000052154064, -0.02200000174343586, 1.0120000839233398, 192.0, 0.0, 0.0, 0.0, 0.0, 0.0, 0.0, 0.0, 0.0, 0.0, 1.598381208143991E9, 2020-08-25 13:46:48.143
32.0, -29.77252197265625, 14925.578125, 68483.8203125, -33986.20703125, 58516.75390625, 81386.4765625, 13054.06640625, -68816.75, 0.006000000052154064, -0.02200000174343586, 1.0120000839233398, 192.0, 0.0, 0.0, 0.0, 0.0, 0.0, 0.0, 0.0, 0.0, 0.0, 1.598381208143993E9, 2020-08-25 13:46:48.143
33.0, 0.31292441487312317, 17424.681640625, 71575.3984375, -30809.21875, 60196.59765625, 82818.421875, 16029.5751953125, -65881.609375, 0.006000000052154064, -0.02200000174343586, 1.0120000839233398, 192.0, 0.0, 0.0, 0.0, 0.0, 0.0, 0.0, 0.0, 0.0, 0.0, 1.598381208143995E9, 2020-08-25 13:46:48.143
34.0, -1.0952354669570923, 35079.4296875, 90517.8359375, -13074.7646484375, 79960.4375, 101035.515625, 36612.0, -45911.62109375, 0.006000000052154064, -0.02200000174343586, 1.0120000839233398, 192.0, 0.0, 0.0, 0.0, 0.0, 0.0, 0.0, 0.0, 0.0, 0.0, 1.598381208143997E9, 2020-08-25 13:46:48.143
35.0, -1.9893051385879517, 52898.28515625, 109574.8671875, 4537.47119140625, 100695.3671875, 120184.5234375, 57663.69921875, -25498.98046875, 0.006000000052154064, -0.02200000174343586, 1.0120000839233398, 192.0, 0.0, 0.0, 0.0, 0.0, 0.0, 0.0, 0.0, 0.0, 0.0, 1.598381208143999E9, 2020-08-25 13:46:48.143
36.0, -1.4305115938186646, 66208.1875, 123671.1484375, 17347.92578125, 117110.0859375, 135246.21875, 73816.2734375, -9872.6982421875, 0.010000000707805157, -0.024000000208616257, 1.0160000324249268, 192.0, 0.0, 80.0, 255.0, 64.0, 31.0, 192.0, 0.0, 0.0, 0.0, 1.598381208144001E9, 2020-08-25 13:46:48.144
37.0, -32.67824935913086, 61501.44921875, 117919.375, 11805.6767578125, 113175.9765625, 131490.65625, 68426.734375, -15096.099609375, 0.010000000707805157, -0.024000000208616257, 1.0160000324249268, 192.0, 0.0, 0.0, 0.0, 0.0, 0.0, 0.0, 0.0, 0.0, 0.0, 1.598381208144003E9, 2020-08-25 13:46:48.144
38.0, -47.67626953125, 43806.04296875, 99003.9609375, -5927.72705078125, 93306.546875, 113213.234375, 47732.55078125, -35148.33984375, 0.010000000707805157, -0.024000000208616257, 1.0160000324249268, 192.0, 0.0, 0.0, 0.0, 0.0, 0.0, 0.0, 0.0, 0.0, 0.0, 1.598381208144016E9, 2020-08-25 13:46:48.144
39.0, -49.66557312011719, 28238.478515625, 82498.6953125, -21188.134765625, 74885.8984375, 96378.0625, 29016.005859375, -53213.4453125, 0.010000000707805157, -0.024000000208616257, 1.0160000324249268, 192.0, 0.0, 0.0, 0.0, 0.0, 0.0, 0.0, 0.0, 0.0, 0.0, 1.598381208144018E9, 2020-08-25 13:46:48.144
40.0, -32.2088623046875, 15218.8779296875, 68802.6015625, -33682.984375, 58848.1640625, 81668.3515625, 13205.25390625, -68453.3984375, 0.010000000707805157, -0.024000000208616257, 1.0160000324249268, 192.0, 0.0, 0.0, 0.0, 0.0, 0.0, 0.0, 0.0, 0.0, 0.0, 1.59838120814402E9, 2020-08-25 13:46:48.144
41.0, 2.2351744174957275, 17710.091796875, 71894.1796875, -30510.375, 60540.94921875, 83106.640625, 16185.27734375, -65510.97265625, 0.010000000707805157, -0.024000000208616257, 1.0160000324249268, 192.0, 0.0, 0.0, 0.0, 0.0, 0.0, 0.0, 0.0, 0.0, 0.0, 1.598381208144022E9, 2020-08-25 13:46:48.144
42.0, 1.586973786354065, 34790.30859375, 90255.15625, -13347.9248046875, 79717.8046875, 100755.109375, 36179.9609375, -46131.5625, 0.010000000707805157, -0.024000000208616257, 1.0160000324249268, 192.0, 0.0, 0.0, 0.0, 0.0, 0.0, 0.0, 0.0, 0.0, 0.0, 1.598381208144023E9, 2020-08-25 13:46:48.144
43.0, -3.4868719577789307, 52469.19921875, 109164.640625, 4121.125, 100289.4609375, 119754.0703125, 57075.51171875, -25885.822265625, 0.010000000707805157, -0.024000000208616257, 1.0160000324249268, 192.0, 0.0, 0.0, 0.0, 0.0, 0.0, 0.0, 0.0, 0.0, 0.0, 1.598381208144025E9, 2020-08-25 13:46:48.144
44.0, -4.671514511108398, 66399.7890625, 123897.6796875, 17550.34375, 117340.015625, 135436.546875, 73869.1171875, -9624.75, 0.010000000707805157, -0.024000000208616257, 1.0160000324249268, 192.0, 0.0, 0.0, 0.0, 0.0, 0.0, 0.0, 0.0, 0.0, 0.0, 1.598381208144027E9, 2020-08-25 13:46:48.144
45.0, -31.493606567382812, 61838.6015625, 118301.3828125, 12153.2021484375, 113575.9375, 131836.984375, 68645.0625, -14680.0888671875, 0.010000000707805157, -0.024000000208616257, 1.0160000324249268, 192.0, 0.0, 0.0, 0.0, 0.0, 0.0, 0.0, 0.0, 0.0, 0.0, 1.598381208204275E9, 2020-08-25 13:46:48.204
46.0, -44.56937789916992, 43613.5703125, 98846.0078125, -6111.369140625, 93166.9140625, 113030.5546875, 47410.640625, -35273.98046875, 0.004000000189989805, -0.026000000536441803, 1.0160000324249268, 192.0, 0.0, 32.0, 255.0, 48.0, 31.0, 192.0, 0.0, 0.0, 0.0, 1.598381208204283E9, 2020-08-25 13:46:48.204
47.0, -50.224369049072266, 27761.73828125, 82045.046875, -21652.849609375, 74439.53125, 95905.2109375, 28389.375, -53644.3203125, 0.004000000189989805, -0.026000000536441803, 1.0160000324249268, 192.0, 0.0, 0.0, 0.0, 0.0, 0.0, 0.0, 0.0, 0.0, 0.0, 1.598381208204286E9, 2020-08-25 13:46:48.204
48.0, -35.74043655395508, 15285.6650390625, 68902.8515625, -33600.234375, 58953.26171875, 81739.453125, 13130.9560546875, -68333.28125, 0.004000000189989805, -0.026000000536441803, 1.0160000324249268, 192.0, 0.0, 0.0, 0.0, 0.0, 0.0, 0.0, 0.0, 0.0, 0.0, 1.598381208204289E9, 2020-08-25 13:46:48.204
49.0, 2.9280784130096436, 18078.291015625, 72311.6015625, -30127.78125, 60974.05859375, 83494.6953125, 16435.416015625, -65066.39453125, 0.004000000189989805, -0.026000000536441803, 1.0160000324249268, 192.0, 0.0, 0.0, 0.0, 0.0, 0.0, 0.0, 0.0, 0.0, 0.0, 1.598381208204292E9, 2020-08-25 13:46:48.204
50.0, 5.163252830505371, 34700.2109375, 90205.109375, -13423.8984375, 79689.6015625, 100690.109375, 35973.03125, -46148.125, 0.004000000189989805, -0.026000000536441803, 1.0160000324249268, 192.0, 0.0, 0.0, 0.0, 0.0, 0.0, 0.0, 0.0, 0.0, 0.0, 1.598381208204295E9, 2020-08-25 13:46:48.204
51.0, -3.0174853801727295, 51981.05859375, 108702.5390625, 3652.87841796875, 99840.390625, 119278.46875, 56451.02734375, -26321.458984375, 0.004000000189989805, -0.026000000536441803, 1.0160000324249268, 192.0, 0.0, 0.0, 0.0, 0.0, 0.0, 0.0, 0.0, 0.0, 0.0, 1.598381208204298E9, 2020-08-25 13:46:48.204
52.0, -8.203089714050293, 66337.1796875, 123866.5234375, 17510.265625, 117313.3984375, 135375.640625, 73667.4140625, -9638.2734375, 0.004000000189989805, -0.026000000536441803, 1.0160000324249268, 192.0, 0.0, 0.0, 0.0, 0.0, 0.0, 0.0, 0.0, 0.0, 0.0, 1.598381208204301E9, 2020-08-25 13:46:48.204
53.0, -31.76182746887207, 62221.17578125, 118728.84375, 12555.48828125, 114017.5390625, 132227.796875, 68911.2265625, -14229.5224609375, 0.004000000189989805, -0.026000000536441803, 1.0160000324249268, 192.0, 0.0, 0.0, 0.0, 0.0, 0.0, 0.0, 0.0, 0.0, 0.0, 1.598381208204304E9, 2020-08-25 13:46:48.204
54.0, -41.753055572509766, 43635.38671875, 98905.03125, -6072.208984375, 93244.4375, 113066.09375, 47320.2734375, -35184.21484375, 0.004000000189989805, -0.026000000536441803, 1.0160000324249268, 192.0, 0.0, 0.0, 0.0, 0.0, 0.0, 0.0, 0.0, 0.0, 0.0, 1.598381208204307E9, 2020-08-25 13:46:48.204
55.0, -49.19618606567383, 27295.63671875, 81597.703125, -22102.208984375, 73997.9921875, 95438.640625, 27791.30859375, -54065.3125, 0.004000000189989805, -0.026000000536441803, 1.0160000324249268, 192.0, 0.0, 0.0, 0.0, 0.0, 0.0, 0.0, 0.0, 0.0, 0.0, 1.598381208204309E9, 2020-08-25 13:46:48.204
56.0, -39.09320068359375, 15102.1123046875, 68740.1953125, -33765.5703125, 58784.6171875, 81540.859375, 12809.8291015625, -68477.2734375, 0.004000000189989805, -0.03200000151991844, 1.0180000066757202, 192.0, 0.0, 32.0, 255.0, 0.0, 31.0, 208.0, 0.0, 0.0, 0.0, 1.598381208204313E9, 2020-08-25 13:46:48.204
57.0, 1.8328429460525513, 18458.875, 72725.5546875, -29730.5234375, 61389.4453125, 83860.4375, 16696.1484375, -64623.31640625, 0.004000000189989805, -0.03200000151991844, 1.0180000066757202, 192.0, 0.0, 0.0, 0.0, 0.0, 0.0, 0.0, 0.0, 0.0, 0.0, 1.598381208204316E9, 2020-08-25 13:46:48.204
58.0, 7.353723526000977, 34833.0234375, 90367.140625, -13281.451171875, 79859.2734375, 100816.8046875, 35986.53125, -45950.08984375, 0.004000000189989805, -0.03200000151991844, 1.0180000066757202, 192.0, 0.0, 0.0, 0.0, 0.0, 0.0, 0.0, 0.0, 0.0, 0.0, 1.598381208204319E9, 2020-08-25 13:46:48.204
59.0, -1.3187528848648071, 51561.5390625, 108291.8984375, 3235.213623046875, 99429.25, 118850.5234375, 55886.9140625, -26699.203125, 0.004000000189989805, -0.03200000151991844, 1.0180000066757202, 192.0, 0.0, 0.0, 0.0, 0.0, 0.0, 0.0, 0.0, 0.0, 0.0, 1.598381208204322E9, 2020-08-25 13:46:48.204
60.0, -10.997057914733887, 66050.609375, 123581.1328125, 17224.947265625, 117019.4453125, 135070.203125, 73219.1484375, -9895.787109375, 0.004000000189989805, -0.03200000151991844, 1.0180000066757202, 192.0, 0.0, 0.0, 0.0, 0.0, 0.0, 0.0, 0.0, 0.0, 0.0, 1.598381208264678E9, 2020-08-25 13:46:48.264
61.0, -33.61702346801758, 62563.37890625, 119090.625, 12902.8125, 114374.2734375, 132556.6875, 69111.8828125, -13835.86328125, 0.004000000189989805, -0.03200000151991844, 1.0180000066757202, 192.0, 0.0, 0.0, 0.0, 0.0, 0.0, 0.0, 0.0, 0.0, 0.0, 1.598381208264698E9, 2020-08-25 13:46:48.264
62.0, -39.51788330078125, 43859.0625, 99150.234375, -5846.076171875, 93496.609375, 113285.0703125, 47412.09375, -34898.5390625, 0.004000000189989805, -0.03200000151991844, 1.0180000066757202, 192.0, 0.0, 0.0, 0.0, 0.0, 0.0, 0.0, 0.0, 0.0, 0.0, 1.598381208264701E9, 2020-08-25 13:46:48.264
63.0, -47.095123291015625, 26943.640625, 81253.375, -22454.583984375, 73658.046875, 95079.734375, 27289.333984375, -54377.27734375, 0.004000000189989805, -0.03200000151991844, 1.0180000066757202, 192.0, 0.0, 0.0, 0.0, 0.0, 0.0, 0.0, 0.0, 0.0, 0.0, 1.598381208264704E9, 2020-08-25 13:46:48.264
64.0, -41.03779983520508, 14728.123046875, 68366.96875, -34138.2421875, 58404.30078125, 81149.125, 12269.2744140625, -68830.1796875, 0.004000000189989805, -0.03200000151991844, 1.0180000066757202, 192.0, 0.0, 0.0, 0.0, 0.0, 0.0, 0.0, 0.0, 0.0, 0.0, 1.598381208264707E9, 2020-08-25 13:46:48.264
65.0, -0.7599592804908752, 18731.185546875, 73018.7890625, -29451.70703125, 61679.90625, 84119.3359375, 16826.50390625, -64309.85546875, 0.004000000189989805, -0.03200000151991844, 1.0180000066757202, 192.0, 0.0, 0.0, 0.0, 0.0, 0.0, 0.0, 0.0, 0.0, 0.0, 1.59838120826471E9, 2020-08-25 13:46:48.264
66.0, 9.231269836425781, 35130.7734375, 90696.4921875, -12973.64453125, 80199.8203125, 101114.171875, 36165.5234375, -45589.375, 0.006000000052154064, -0.02800000086426735, 1.0200001001358032, 192.0, 0.0, 48.0, 255.0, 32.0, 31.0, 224.0, 0.0, 0.0, 0.0, 1.598381208264713E9, 2020-08-25 13:46:48.264
67.0, 1.0281802415847778, 51295.30859375, 108040.90625, 2981.163818359375, 99190.578125, 118579.796875, 55491.51171875, -26915.166015625, 0.006000000052154064, -0.02800000086426735, 1.0200001001358032, 192.0, 0.0, 0.0, 0.0, 0.0, 0.0, 0.0, 0.0, 0.0, 0.0, 1.598381208264716E9, 2020-08-25 13:46:48.264
68.0, -12.382865905761719, 65614.4375, 123148.8515625, 16802.87890625, 116586.25, 134614.84375, 72634.8046875, -10300.689453125, 0.006000000052154064, -0.02800000086426735, 1.0200001001358032, 192.0, 0.0, 0.0, 0.0, 0.0, 0.0, 0.0, 0.0, 0.0, 0.0, 1.598381208264719E9, 2020-08-25 13:46:48.264
69.0, -36.925079345703125, 62734.39453125, 119279.09375, 13089.650390625, 114561.0234375, 132708.03125, 69145.9921875, -13616.6376953125, 0.006000000052154064, -0.02800000086426735, 1.0200001001358032, 192.0, 0.0, 0.0, 0.0, 0.0, 0.0, 0.0, 0.0, 0.0, 0.0, 1.598381208264722E9, 2020-08-25 13:46:48.264
70.0, -38.57910919189453, 44205.734375, 99527.796875, -5478.45703125, 93882.953125, 113629.9140625, 47640.3515625, -34477.09375, 0.006000000052154064, -0.02800000086426735, 1.0200001001358032, 192.0, 0.0, 0.0, 0.0, 0.0, 0.0, 0.0, 0.0, 0.0, 0.0, 1.598381208264724E9, 2020-08-25 13:46:48.264
71.0, -43.87647247314453, 26790.912109375, 81120.8515625, -22586.7265625, 73533.28125, 94929.265625, 27009.265625, -54463.35546875, 0.006000000052154064, -0.02800000086426735, 1.0200001001358032, 192.0, 0.0, 0.0, 0.0, 0.0, 0.0, 0.0, 0.0, 0.0, 0.0, 1.598381208264728E9, 2020-08-25 13:46:48.264
72.0, -41.328372955322266, 14267.341796875, 67912.3984375, -34581.54296875, 57944.94921875, 80676.7421875, 11656.7919921875, -69250.1015625, 0.006000000052154064, -0.02800000086426735, 1.0200001001358032, 192.0, 0.0, 0.0, 0.0, 0.0, 0.0, 0.0, 0.0, 0.0, 0.0, 1.598381208264731E9, 2020-08-25 13:46:48.264
73.0, -4.358590126037598, 18766.478515625, 73071.5390625, -29398.064453125, 61721.14453125, 84135.6953125, 16713.26953125, -64230.44140625, 0.006000000052154064, -0.02800000086426735, 1.0200001001358032, 192.0, 0.0, 0.0, 0.0, 0.0, 0.0, 0.0, 0.0, 0.0, 0.0, 1.598381208264734E9, 2020-08-25 13:46:48.264
74.0, 9.678304672241211, 35504.046875, 91098.0859375, -12584.322265625, 80601.796875, 101476.3359375, 36409.15625, -45152.7578125, 0.006000000052154064, -0.02800000086426735, 1.0200001001358032, 192.0, 0.0, 0.0, 0.0, 0.0, 0.0, 0.0, 0.0, 0.0, 0.0, 1.598381208264737E9, 2020-08-25 13:46:48.264
75.0, 4.224479675292969, 51249.59765625, 108012.0078125, 2945.3115234375, 99165.765625, 118529.84375, 55312.5859375, -26905.888671875, 0.006000000052154064, -0.02800000086426735, 1.0200001001358032, 192.0, 0.0, 0.0, 0.0, 0.0, 0.0, 0.0, 0.0, 0.0, 0.0, 1.598381208324858E9, 2020-08-25 13:46:48.324
76.0, -11.689962387084961, 65157.03125, 122694.15625, 16354.1669921875, 116125.3515625, 134144.296875, 72024.5625, -10728.5908203125, 0.00800000037997961, -0.024000000208616257, 1.0160000324249268, 192.0, 0.0, 64.0, 255.0, 64.0, 31.0, 192.0, 0.0, 0.0, 0.0, 1.598381208324877E9, 2020-08-25 13:46:48.324
77.0, -40.054325103759766, 62652.71875, 119205.6015625, 13017.0068359375, 114477.2734375, 132602.703125, 68908.28125, -13674.1484375, 0.00800000037997961, -0.024000000208616257, 1.0160000324249268, 192.0, 0.0, 0.0, 0.0, 0.0, 0.0, 0.0, 0.0, 0.0, 0.0, 1.598381208324879E9, 2020-08-25 13:46:48.324
78.0, -38.7579231262207, 44601.09375, 99948.7734375, -5076.6171875, 94307.015625, 114013.3125, 47907.8984375, -34035.04296875, 0.00800000037997961, -0.024000000208616257, 1.0160000324249268, 192.0, 0.0, 0.0, 0.0, 0.0, 0.0, 0.0, 0.0, 0.0, 0.0, 1.598381208324881E9, 2020-08-25 13:46:48.324
79.0, -40.858985900878906, 26847.998046875, 81199.4609375, -22529.708984375, 73625.4375, 94986.75, 26946.2109375, -54358.03125, 0.00800000037997961, -0.024000000208616257, 1.0160000324249268, 192.0, 0.0, 0.0, 0.0, 0.0, 0.0, 0.0, 0.0, 0.0, 0.0, 1.598381208324883E9, 2020-08-25 13:46:48.324
80.0, -39.98727035522461, 13827.7275390625, 67470.9765625, -35029.00390625, 57510.54296875, 80226.171875, 11073.92578125, -69668.375, 0.00800000037997961, -0.024000000208616257, 1.0160000324249268, 192.0, 0.0, 0.0, 0.0, 0.0, 0.0, 0.0, 0.0, 0.0, 0.0, 1.598381208324886E9, 2020-08-25 13:46:48.324
81.0, -7.420778751373291, 18602.216796875, 72903.96875, -29572.048828125, 61555.046875, 83950.734375, 16398.646484375, -64378.87890625, 0.00800000037997961, -0.024000000208616257, 1.0160000324249268, 192.0, 0.0, 0.0, 0.0, 0.0, 0.0, 0.0, 0.0, 0.0, 0.0, 1.598381208324888E9, 2020-08-25 13:46:48.324
82.0, 8.47131061553955, 35901.7265625, 91514.09375, -12190.2158203125, 81028.625, 101868.515625, 36681.08984375, -44713.25390625, 0.00800000037997961, -0.024000000208616257, 1.0160000324249268, 192.0, 0.0, 0.0, 0.0, 0.0, 0.0, 0.0, 0.0, 0.0, 0.0, 1.59838120832489E9, 2020-08-25 13:46:48.324
83.0, 6.884336948394775, 51400.42578125, 108182.953125, 3096.297607421875, 99361.4609375, 118690.125, 55347.43359375, -26709.060546875, 0.00800000037997961, -0.024000000208616257, 1.0160000324249268, 192.0, 0.0, 0.0, 0.0, 0.0, 0.0, 0.0, 0.0, 0.0, 0.0, 1.598381208324892E9, 2020-08-25 13:46:48.324
84.0, -10.035932540893555, 64746.51953125, 122286.5703125, 15944.638671875, 115737.84375, 133740.78125, 71482.0625, -11113.7783203125, 0.00800000037997961, -0.024000000208616257, 1.0160000324249268, 192.0, 0.0, 0.0, 0.0, 0.0, 0.0, 0.0, 0.0, 0.0, 0.0, 1.598381208324903E9, 2020-08-25 13:46:48.324
85.0, -43.228271484375, 62375.3359375, 118930.1875, 12742.86328125, 114208.421875, 132326.09375, 68495.3125, -13931.1708984375, 0.00800000037997961, -0.024000000208616257, 1.0160000324249268, 192.0, 0.0, 0.0, 0.0, 0.0, 0.0, 0.0, 0.0, 0.0, 0.0, 1.598381208324905E9, 2020-08-25 13:46:48.324
86.0, -40.65782165527344, 44954.296875, 100324.75, -4719.57080078125, 94692.78125, 114369.421875, 48148.8984375, -33632.04296875, 0.00800000037997961, -0.024000000208616257, 1.0160000324249268, 192.0, 0.0, 0.0, 0.0, 0.0, 0.0, 0.0, 0.0, 0.0, 0.0, 1.598381208324908E9, 2020-08-25 13:46:48.324
87.0, -38.91438674926758, 27064.654296875, 81446.0234375, -22306.615234375, 73889.8828125, 95217.3359375, 27063.78125, -54070.23046875, 0.004000000189989805, -0.018000001087784767, 1.0160000324249268, 192.0, 0.0, 32.0, 255.0, 112.0, 31.0, 192.0, 0.0, 0.0, 0.0, 1.59838120832491E9, 2020-08-25 13:46:48.324
88.0, -37.819149017333984, 13464.4443359375, 67127.6484375, -35380.9765625, 57179.8046875, 79880.8203125, 10598.0341796875, -69971.265625, 0.004000000189989805, -0.018000001087784767, 1.0160000324249268, 192.0, 0.0, 0.0, 0.0, 0.0, 0.0, 0.0, 0.0, 0.0, 0.0, 1.598381208324912E9, 2020-08-25 13:46:48.324
89.0, -9.477139472961426, 18217.9453125, 72528.59375, -29944.1171875, 61179.89453125, 83569.8828125, 15883.193359375, -64720.5703125, 0.004000000189989805, -0.018000001087784767, 1.0160000324249268, 192.0, 0.0, 0.0, 0.0, 0.0, 0.0, 0.0, 0.0, 0.0, 0.0, 1.598381208324915E9, 2020-08-25 13:46:48.324
90.0, 5.878508567810059, 36173.078125, 91809.3828125, -11908.4951171875, 81325.765625, 102140.4296875, 36841.10546875, -44378.76171875, 0.004000000189989805, -0.018000001087784767, 1.0160000324249268, 192.0, 0.0, 0.0, 0.0, 0.0, 0.0, 0.0, 0.0, 0.0, 0.0, 1.598381208383886E9, 2020-08-25 13:46:48.383
91.0, 8.583069801330566, 51695.91796875, 108513.109375, 3399.0966796875, 99701.203125, 119000.390625, 55551.01171875, -26326.353515625, 0.004000000189989805, -0.018000001087784767, 1.0160000324249268, 192.0, 0.0, 0.0, 0.0, 0.0, 0.0, 0.0, 0.0, 0.0, 0.0, 1.598381208383902E9, 2020-08-25 13:46:48.383
92.0, -7.130206108093262, 64468.59765625, 122029.2109375, 15672.505859375, 115486.6796875, 133478.90625, 71098.390625, -11318.990234375, 0.004000000189989805, -0.018000001087784767, 1.0160000324249268, 192.0, 0.0, 0.0, 0.0, 0.0, 0.0, 0.0, 0.0, 0.0, 0.0, 1.598381208383904E9, 2020-08-25 13:46:48.383
93.0, -44.278804779052734, 61928.234375, 118486.1875, 12301.6845703125, 113761.2578125, 131877.015625, 67913.109375, -14336.1181640625, 0.004000000189989805, -0.018000001087784767, 1.0160000324249268, 192.0, 0.0, 0.0, 0.0, 0.0, 0.0, 0.0, 0.0, 0.0, 0.0, 1.598381208383905E9, 2020-08-25 13:46:48.383
94.0, -44.34585952758789, 45116.28125, 100501.53125, -4549.67529296875, 94864.84375, 114525.0625, 48181.73046875, -33423.90234375, 0.004000000189989805, -0.018000001087784767, 1.0160000324249268, 192.0, 0.0, 0.0, 0.0, 0.0, 0.0, 0.0, 0.0, 0.0, 0.0, 1.598381208383907E9, 2020-08-25 13:46:48.383
95.0, -37.97561264038086, 27430.529296875, 81837.21875, -21932.111328125, 74287.9609375, 95587.1875, 27322.16796875, -53642.08203125, 0.004000000189989805, -0.018000001087784767, 1.0160000324249268, 192.0, 0.0, 0.0, 0.0, 0.0, 0.0, 0.0, 0.0, 0.0, 0.0, 1.598381208383909E9, 2020-08-25 13:46:48.383
96.0, -34.89107131958008, 13317.302734375, 66992.6015625, -35521.48046875, 57054.74609375, 79737.453125, 10339.3134765625, -70065.5859375, 0.004000000189989805, -0.018000001087784767, 1.0160000324249268, 192.0, 0.0, 0.0, 0.0, 0.0, 0.0, 0.0, 0.0, 0.0, 0.0, 1.598381208383911E9, 2020-08-25 13:46:48.383
97.0, -9.70065689086914, 17741.541015625, 72050.6875, -30413.90625, 60698.8203125, 83086.1484375, 15277.3046875, -65167.78125, 0.004000000189989805, -0.020000001415610313, 1.0140000581741333, 192.0, 0.0, 32.0, 255.0, 96.0, 31.0, 176.0, 0.0, 0.0, 0.0, 1.598381208383912E9, 2020-08-25 13:46:48.383
98.0, 2.212822675704956, 36211.63671875, 91858.71875, -11857.80078125, 81370.0234375, 102167.046875, 36761.4453125, -44303.45703125, 0.004000000189989805, -0.020000001415610313, 1.0140000581741333, 192.0, 0.0, 0.0, 0.0, 0.0, 0.0, 0.0, 0.0, 0.0, 0.0, 1.598381208383914E9, 2020-08-25 13:46:48.383
99.0, 9.298325538635254, 52108.23828125, 108953.8671875, 3828.20556640625, 100151.4140625, 119412.46875, 55872.23046875, -25850.775390625, 0.004000000189989805, -0.020000001415610313, 1.0140000581741333, 192.0, 0.0, 0.0, 0.0, 0.0, 0.0, 0.0, 0.0, 0.0, 0.0, 1.598381208383916E9, 2020-08-25 13:46:48.383
100.0, -3.7997963428497314, 64448.9296875, 122029.96875, 15665.912109375, 115505.1640625, 133465.65625, 70987.75, -11278.064453125, 0.004000000189989805, -0.020000001415610313, 1.0140000581741333, 192.0, 0.0, 0.0, 0.0, 0.0, 0.0, 0.0, 0.0, 0.0, 0.0, 1.598381208383917E9, 2020-08-25 13:46:48.383
101.0, -43.51884460449219, 61450.3984375, 118010.6796875, 11833.37109375, 113295.4921875, 131395.234375, 67324.8359375, -14777.2744140625, 0.004000000189989805, -0.020000001415610313, 1.0140000581741333, 192.0, 0.0, 0.0, 0.0, 0.0, 0.0, 0.0, 0.0, 0.0, 0.0, 1.598381208383919E9, 2020-08-25 13:46:48.383
102.0, -47.743324279785156, 45023.20703125, 100408.125, -4637.47265625, 94780.828125, 114416.25, 47971.71484375, -33481.66015625, 0.004000000189989805, -0.020000001415610313, 1.0140000581741333, 192.0, 0.0, 0.0, 0.0, 0.0, 0.0, 0.0, 0.0, 0.0, 0.0, 1.598381208383921E9, 2020-08-25 13:46:48.383
103.0, -38.17677688598633, 27852.75390625, 82275.625, -21506.958984375, 74752.234375, 96002.84375, 27648.951171875, -53153.875, 0.004000000189989805, -0.020000001415610313, 1.0140000581741333, 192.0, 0.0, 0.0, 0.0, 0.0, 0.0, 0.0, 0.0, 0.0, 0.0, 1.598381208383923E9, 2020-08-25 13:46:48.383
104.0, -31.873586654663086, 13409.1240234375, 67101.8828125, -35427.08984375, 57200.21484375, 79836.3828125, 10340.7216796875, -69903.5546875, 0.004000000189989805, -0.020000001415610313, 1.0140000581741333, 192.0, 0.0, 0.0, 0.0, 0.0, 0.0, 0.0, 0.0, 0.0, 0.0, 1.598381208383925E9, 2020-08-25 13:46:48.383
105.0, -8.337200164794922, 17296.517578125, 71608.8828125, -30854.63671875, 60285.8046875, 82642.4453125, 14718.6005859375, -65567.3203125, 0.004000000189989805, -0.020000001415610313, 1.0140000581741333, 192.0, 0.0, 0.0, 0.0, 0.0, 0.0, 0.0, 0.0, 0.0, 0.0, 1.598381208444021E9, 2020-08-25 13:46:48.444
106.0, -1.1399389505386353, 35986.28515625, 91634.28125, -12077.1162109375, 81160.8984375, 101928.3984375, 36404.73046875, -44494.41015625, 0.004000000189989805, -0.020000001415610313, 1.0140000581741333, 192.0, 0.0, 0.0, 0.0, 0.0, 0.0, 0.0, 0.0, 0.0, 0.0, 1.598381208444027E9, 2020-08-25 13:46:48.444
107.0, 7.666647911071777, 52492.8671875, 109356.890625, 4218.7353515625, 100573.59375, 119789.8984375, 56146.6640625, -25403.181640625, 0.004000000189989805, -0.020000001415610313, 1.0140000581741333, 192.0, 0.0, 0.0, 255.0, 112.0, 31.0, 208.0, 0.0, 0.0, 0.0, 1.598381208444037E9, 2020-08-25 13:46:48.444
108.0, -1.6093255281448364, 64640.4609375, 122243.09375, 15866.0048828125, 115742.828125, 133664.015625, 71079.1953125, -11011.2060546875, 0.004000000189989805, -0.020000001415610313, 1.0140000581741333, 192.0, 0.0, 0.0, 0.0, 0.0, 0.0, 0.0, 0.0, 0.0, 0.0, 1.598381208444039E9, 2020-08-25 13:46:48.444
109.0, -41.44013214111328, 61063.12890625, 117629.4921875, 11457.056640625, 112929.9296875, 131010.859375, 66818.59375, -15110.8740234375, 0.004000000189989805, -0.020000001415610313, 1.0140000581741333, 192.0, 0.0, 0.0, 0.0, 0.0, 0.0, 0.0, 0.0, 0.0, 0.0, 1.598381208444041E9, 2020-08-25 13:46:48.444
110.0, -50.26906967163086, 44678.41015625, 100065.6484375, -4965.46240234375, 94437.796875, 114063.25, 47496.1796875, -33788.37109375, 0.004000000189989805, -0.020000001415610313, 1.0140000581741333, 192.0, 0.0, 0.0, 0.0, 0.0, 0.0, 0.0, 0.0, 0.0, 0.0, 1.598381208444043E9, 2020-08-25 13:46:48.444
111.0, -40.255489349365234, 28158.4140625, 82601.7421875, -21182.189453125, 75077.5859375, 96304.40625, 27845.98046875, -52795.578125, 0.004000000189989805, -0.020000001415610313, 1.0140000581741333, 192.0, 0.0, 0.0, 0.0, 0.0, 0.0, 0.0, 0.0, 0.0, 0.0, 1.598381208444044E9, 2020-08-25 13:46:48.444
112.0, -29.638412475585938, 13666.3251953125, 67383.4453125, -35155.87109375, 57488.99609375, 80100.5390625, 10502.2578125, -69580.796875, 0.004000000189989805, -0.020000001415610313, 1.0140000581741333, 192.0, 0.0, 0.0, 0.0, 0.0, 0.0, 0.0, 0.0, 0.0, 0.0, 1.598381208444046E9, 2020-08-25 13:46:48.444
113.0, -5.90086030960083, 16965.48828125, 71287.265625, -31174.84765625, 59968.05078125, 82314.921875, 14273.689453125, -65848.53125, 0.004000000189989805, -0.020000001415610313, 1.0140000581741333, 192.0, 0.0, 0.0, 0.0, 0.0, 0.0, 0.0, 0.0, 0.0, 0.0, 1.598381208444048E9, 2020-08-25 13:46:48.444
114.0, -2.7492644786834717, 35588.24609375, 91238.5, -12468.8310546875, 80753.40625, 101517.734375, 35874.078125, -44865.73828125, 0.004000000189989805, -0.020000001415610313, 1.0140000581741333, 192.0, 0.0, 0.0, 0.0, 0.0, 0.0, 0.0, 0.0, 0.0, 0.0, 1.598381208444049E9, 2020-08-25 13:46:48.444
115.0, 4.5821075439453125, 52754.05078125, 109641.921875, 4485.88330078125, 100847.0859375, 120037.875, 56292.328125, -25097.341796875, 0.004000000189989805, -0.020000001415610313, 1.0140000581741333, 192.0, 0.0, 0.0, 0.0, 0.0, 0.0, 0.0, 0.0, 0.0, 0.0, 1.598381208444051E9, 2020-08-25 13:46:48.444
116.0, 0.04470348730683327, 64955.0390625, 122592.6953125, 16185.3896484375, 116093.640625, 133975.4375, 71298.8671875, -10629.193359375, 0.004000000189989805, -0.020000001415610313, 1.0140000581741333, 192.0, 0.0, 0.0, 0.0, 0.0, 0.0, 0.0, 0.0, 0.0, 0.0, 1.598381208444053E9, 2020-08-25 13:46:48.444
117.0, -38.310890197753906, 60799.24609375, 117391.0, 11197.5302734375, 112689.2890625, 130746.5234375, 66447.4453125, -15316.9794921875, 0.0020000000949949026, -0.024000000208616257, 1.0180000066757202, 192.0, 0.0, 16.0, 255.0, 64.0, 31.0, 208.0, 0.0, 0.0, 0.0, 1.598381208444055E9, 2020-08-25 13:46:48.444
118.0, -50.93962478637695, 44224.6015625, 99631.0625, -5412.3408203125, 93985.375, 113597.328125, 46914.140625, -34204.62890625, 0.0020000000949949026, -0.024000000208616257, 1.0180000066757202, 192.0, 0.0, 0.0, 0.0, 0.0, 0.0, 0.0, 0.0, 0.0, 0.0, 1.598381208444056E9, 2020-08-25 13:46:48.444
119.0, -43.720008850097656, 28318.7421875, 82794.0546875, -21011.64453125, 75250.96875, 96448.890625, 27888.181640625, -52582.07421875, 0.0020000000949949026, -0.024000000208616257, 1.0180000066757202, 192.0, 0.0, 0.0, 0.0, 0.0, 0.0, 0.0, 0.0, 0.0, 0.0, 1.598381208444058E9, 2020-08-25 13:46:48.444
120.0, -28.654935836791992, 14041.857421875, 67800.0390625, -34768.2265625, 57902.3046875, 80471.90625, 10781.2294921875, -69128.9375, 0.0020000000949949026, -0.024000000208616257, 1.0180000066757202, 192.0, 0.0, 0.0, 0.0, 0.0, 0.0, 0.0, 0.0, 0.0, 0.0, 1.598381208504248E9, 2020-08-25 13:46:48.504
121.0, -2.6598575115203857, 16832.181640625, 71181.609375, -31301.470703125, 59859.15234375, 82180.03125, 14039.2197265625, -65916.390625, 0.0020000000949949026, -0.024000000208616257, 1.0180000066757202, 192.0, 0.0, 0.0, 0.0, 0.0, 0.0, 0.0, 0.0, 0.0, 0.0, 1.598381208504258E9, 2020-08-25 13:46:48.504
122.0, -2.861023187637329, 35100.796875, 90761.359375, -12950.4658203125, 80262.2265625, 101016.984375, 35259.67578125, -45311.92578125, 0.0020000000949949026, -0.024000000208616257, 1.0180000066757202, 192.0, 0.0, 0.0, 0.0, 0.0, 0.0, 0.0, 0.0, 0.0, 0.0, 1.598381208504263E9, 2020-08-25 13:46:48.504
123.0, 1.0058284997940063, 52754.453125, 109661.859375, 4495.87451171875, 100848.03125, 120016.4609375, 56163.42578125, -25056.37109375, 0.0020000000949949026, -0.024000000208616257, 1.0180000066757202, 192.0, 0.0, 0.0, 0.0, 0.0, 0.0, 0.0, 0.0, 0.0, 0.0, 1.598381208504267E9, 2020-08-25 13:46:48.504
124.0, 0.33527615666389465, 65362.04296875, 123039.640625, 16604.484375, 116534.4375, 134376.6875, 71598.9140625, -10156.900390625, 0.0020000000949949026, -0.024000000208616257, 1.0180000066757202, 192.0, 0.0, 0.0, 0.0, 0.0, 0.0, 0.0, 0.0, 0.0, 0.0, 1.598381208504271E9, 2020-08-25 13:46:48.504
125.0, -35.382808685302734, 60793.03125, 117415.6953125, 11198.201171875, 112718.8359375, 130745.09375, 66335.640625, -15257.2333984375, 0.0020000000949949026, -0.024000000208616257, 1.0180000066757202, 192.0, 0.0, 0.0, 0.0, 0.0, 0.0, 0.0, 0.0, 0.0, 0.0, 1.598381208504275E9, 2020-08-25 13:46:48.504
126.0, -50.35847854614258, 43748.26171875, 99163.625, -5889.77392578125, 93516.078125, 113116.5859375, 46308.72265625, -34641.06640625, 0.0020000000949949026, -0.024000000208616257, 1.0180000066757202, 192.0, 0.0, 0.0, 0.0, 0.0, 0.0, 0.0, 0.0, 0.0, 0.0, 1.59838120850428E9, 2020-08-25 13:46:48.504
127.0, -47.54216003417969, 28194.66796875, 82686.03125, -21138.021484375, 75131.4296875, 96312.6328125, 27628.095703125, -52669.515625, 0.004000000189989805, -0.02200000174343586, 1.0220000743865967, 192.0, 0.0, 32.0, 255.0, 80.0, 31.0, 240.0, 0.0, 0.0, 0.0, 1.598381208504284E9, 2020-08-25 13:46:48.504
128.0, -29.660764694213867, 14452.7490234375, 68251.9453125, -34355.76953125, 58351.4609375, 80884.6796875, 11079.9384765625, -68652.1953125, 0.004000000189989805, -0.02200000174343586, 1.0220000743865967, 192.0, 0.0, 0.0, 0.0, 0.0, 0.0, 0.0, 0.0, 0.0, 0.0, 1.598381208504288E9, 2020-08-25 13:46:48.504
129.0, -0.04470348730683327, 16925.634765625, 71314.6015625, -31203.75, 60001.734375, 82289.734375, 14026.568359375, -65751.0546875, 0.004000000189989805, -0.02200000174343586, 1.0220000743865967, 192.0, 0.0, 0.0, 0.0, 0.0, 0.0, 0.0, 0.0, 0.0, 0.0, 1.598381208504293E9, 2020-08-25 13:46:48.504
130.0, -1.452863335609436, 34639.68359375, 90319.4609375, -13405.771484375, 79827.3046875, 100569.7265625, 34675.3984375, -45723.8203125, 0.004000000189989805, -0.02200000174343586, 1.0220000743865967, 192.0, 0.0, 0.0, 0.0, 0.0, 0.0, 0.0, 0.0, 0.0, 0.0, 1.598381208504297E9, 2020-08-25 13:46:48.504
131.0, -2.0563604831695557, 52505.8984375, 109425.84375, 4250.2734375, 100613.6015625, 119772.0390625, 55785.125, -25264.80078125, 0.004000000189989805, -0.02200000174343586, 1.0220000743865967, 192.0, 0.0, 0.0, 0.0, 0.0, 0.0, 0.0, 0.0, 0.0, 0.0, 1.598381208504313E9, 2020-08-25 13:46:48.504
132.0, -1.1399389505386353, 65743.359375, 123449.640625, 16986.4765625, 116957.6640625, 134767.0, 71873.3515625, -9711.8544921875, 0.004000000189989805, -0.02200000174343586, 1.0220000743865967, 192.0, 0.0, 0.0, 0.0, 0.0, 0.0, 0.0, 0.0, 0.0, 0.0, 1.598381208504317E9, 2020-08-25 13:46:48.504
133.0, -32.85706329345703, 60988.6328125, 117643.1015625, 11395.2763671875, 112970.6328125, 130960.40625, 66437.8515625, -14988.498046875, 0.004000000189989805, -0.02200000174343586, 1.0220000743865967, 192.0, 0.0, 0.0, 0.0, 0.0, 0.0, 0.0, 0.0, 0.0, 0.0, 1.598381208504321E9, 2020-08-25 13:46:48.504
134.0, -48.14565658569336, 43350.9609375, 98781.046875, -6284.8408203125, 93150.3984375, 112731.15625, 45799.1484375, -34990.6484375, 0.004000000189989805, -0.02200000174343586, 1.0220000743865967, 192.0, 0.0, 0.0, 0.0, 0.0, 0.0, 0.0, 0.0, 0.0, 0.0, 1.598381208504325E9, 2020-08-25 13:46:48.504
135.0, -49.71027755737305, 27845.19921875, 82339.84375, -21484.25, 74792.1328125, 95957.2421875, 27150.86328125, -52989.3671875, 0.004000000189989805, -0.02200000174343586, 1.0220000743865967, 192.0, 0.0, 0.0, 0.0, 0.0, 0.0, 0.0, 0.0, 0.0, 0.0, 1.598381208564598E9, 2020-08-25 13:46:48.564
136.0, -31.80653190612793, 14779.0625, 68597.6328125, -34026.21484375, 58709.828125, 81202.765625, 11298.60546875, -68274.7421875, 0.004000000189989805, -0.02200000174343586, 1.0220000743865967, 192.0, 0.0, 0.0, 0.0, 0.0, 0.0, 0.0, 0.0, 0.0, 0.0, 1.598381208564603E9, 2020-08-25 13:46:48.564
137.0, 2.3245813846588135, 17219.404296875, 71633.921875, -30909.890625, 60345.953125, 82587.3671875, 14227.2421875, -65389.1328125, 0.006000000052154064, -0.02200000174343586, 1.0220000743865967, 192.0, 0.0, 48.0, 255.0, 80.0, 31.0, 240.0, 0.0, 0.0, 0.0, 1.598381208564606E9, 2020-08-25 13:46:48.564
138.0, 1.4752150774002075, 34349.22265625, 90041.09375, -13699.2275390625, 79568.65625, 100280.40625, 34270.921875, -45963.3671875, 0.006000000052154064, -0.02200000174343586, 1.0220000743865967, 192.0, 0.0, 0.0, 0.0, 0.0, 0.0, 0.0, 0.0, 0.0, 0.0, 1.598381208564608E9, 2020-08-25 13:46:48.564
139.0, -3.3974649906158447, 52061.63671875, 108984.1484375, 3809.4970703125, 100175.953125, 119315.1953125, 55203.2421875, -25680.611328125, 0.006000000052154064, -0.02200000174343586, 1.0220000743865967, 192.0, 0.0, 0.0, 0.0, 0.0, 0.0, 0.0, 0.0, 0.0, 0.0, 1.59838120856461E9, 2020-08-25 13:46:48.564
140.0, -4.291534900665283, 65935.2734375, 123656.796875, 17185.71875, 117164.9765625, 134941.75, 71935.1328125, -9480.3134765625, 0.006000000052154064, -0.02200000174343586, 1.0220000743865967, 192.0, 0.0, 0.0, 0.0, 0.0, 0.0, 0.0, 0.0, 0.0, 0.0, 1.598381208564612E9, 2020-08-25 13:46:48.564
141.0, -31.493606567382812, 61347.78125, 118028.09375, 11760.8837890625, 113363.8203125, 131314.921875, 66684.0390625, -14570.69921875, 0.006000000052154064, -0.02200000174343586, 1.0220000743865967, 192.0, 0.0, 0.0, 0.0, 0.0, 0.0, 0.0, 0.0, 0.0, 0.0, 1.598381208564614E9, 2020-08-25 13:46:48.564
142.0, -44.9046516418457, 43169.12890625, 98614.6171875, -6460.81640625, 92993.265625, 112551.359375, 45496.99609375, -35122.2578125, 0.006000000052154064, -0.02200000174343586, 1.0220000743865967, 192.0, 0.0, 0.0, 0.0, 0.0, 0.0, 0.0, 0.0, 0.0, 0.0, 1.598381208564616E9, 2020-08-25 13:46:48.564
143.0, -50.40318298339844, 27386.33984375, 81883.53125, -21937.38671875, 74331.640625, 95489.53125, 26547.501953125, -53424.109375, 0.006000000052154064, -0.02200000174343586, 1.0220000743865967, 192.0, 0.0, 0.0, 0.0, 0.0, 0.0, 0.0, 0.0, 0.0, 0.0, 1.598381208564618E9, 2020-08-25 13:46:48.564
144.0, -35.49456787109375, 14900.07421875, 68732.953125, -33897.24609375, 58837.30078125, 81311.3515625, 11282.9365234375, -68123.9609375, 0.006000000052154064, -0.02200000174343586, 1.0220000743865967, 192.0, 0.0, 0.0, 0.0, 0.0, 0.0, 0.0, 0.0, 0.0, 0.0, 1.59838120856462E9, 2020-08-25 13:46:48.564
145.0, 3.218651056289673, 17618.001953125, 72062.3984375, -30501.546875, 60783.66796875, 82988.2890625, 14516.2060546875, -64936.41796875, 0.006000000052154064, -0.02200000174343586, 1.0220000743865967, 192.0, 0.0, 0.0, 0.0, 0.0, 0.0, 0.0, 0.0, 0.0, 0.0, 1.598381208564622E9, 2020-08-25 13:46:48.564
146.0, 4.671514511108398, 34241.84375, 89954.90625, -13795.98828125, 79503.3828125, 100183.265625, 34056.0546875, -46022.0625, 0.006000000052154064, -0.02200000174343586, 1.0220000743865967, 192.0, 0.0, 0.0, 0.0, 0.0, 0.0, 0.0, 0.0, 0.0, 0.0, 1.598381208564625E9, 2020-08-25 13:46:48.564
147.0, -3.598630666732788, 51594.953125, 108523.2578125, 3346.257080078125, 99728.09375, 118848.671875, 54606.046875, -26124.62890625, 0.012000000104308128, -0.02200000174343586, 1.0180000066757202, 192.0, 0.0, 96.0, 255.0, 80.0, 31.0, 208.0, 0.0, 0.0, 0.0, 1.598381208564627E9, 2020-08-25 13:46:48.564
