Sample Index, EXG Channel 0, EXG Channel 1, EXG Channel 2, EXG Channel 3, EXG Channel 4, EXG Channel 5, EXG Channel 6, EXG Channel 7, Accel Channel 0, Accel Channel 1, Accel Channel 2, Other, Other, Other, Other, Other, Other, Other, Analog Channel 0, Analog Channel 1, Analog Channel 2, Timestamp, Timestamp (Formatted)
12.0, 27.067960739135742, -20287.91796875, 17980.79296875, 3740.60888671875, 105798.4453125, 68481.0234375, -113774.015625, 187500.0, 0.0, 0.0, 0.0, 192.0, 0.0, 0.0, 0.0, 0.0, 0.0, 0.0, 0.0, 0.0, 0.0, 1.598474831887678E9, 2020-08-26 15:47:11.887
13.0, -24.51986312866211, -26551.76953125, 12627.2373046875, -1903.13916015625, 101628.375, 64356.2578125, -119107.5, 187500.0, 0.0, 0.0, 0.0, 192.0, 0.0, 0.0, 0.0, 0.0, 0.0, 0.0, 0.0, 0.0, 0.0, 1.598474831887682E9, 2020-08-26 15:47:11.887
14.0, -103.6226806640625, -45627.15234375, -7196.0546875, -20641.41015625, 80749.046875, 45035.61328125, -140714.625, 187500.0, 0.0, 0.0, 0.0, 192.0, 0.0, 0.0, 0.0, 0.0, 0.0, 0.0, 0.0, 0.0, 0.0, 1.598474831887686E9, 2020-08-26 15:47:11.887
15.0, -128.6119384765625, -60299.23828125, -23619.265625, -35641.95703125, 62740.5859375, 28641.568359375, -159125.328125, 187500.0, 0.0, 0.0, 0.0, 192.0, 0.0, 0.0, 0.0, 0.0, 0.0, 0.0, 0.0, 0.0, 0.0, 1.598474831887689E9, 2020-08-26 15:47:11.887
16.0, -67.5916748046875, -71795.546875, -37441.47265625, -47929.9375, 47147.11328125, 14476.12890625, -174663.046875, 187500.0, 0.012000000104308128, -0.020000001415610313, 1.0080000162124634, 192.0, 0.0, 96.0, 255.0, 96.0, 31.0, 128.0, 0.0, 0.0, 0.0, 1.598474831887692E9, 2020-08-26 15:47:11.887
17.0, 76.64412689208984, -69201.9375, -36020.08203125, -46099.17578125, 47648.171875, 14876.2919921875, -172909.015625, 187500.0, 0.012000000104308128, -0.020000001415610313, 1.0080000162124634, 192.0, 0.0, 0.0, 0.0, 0.0, 0.0, 0.0, 0.0, 0.0, 0.0, 1.598474831887696E9, 2020-08-26 15:47:11.887
18.0, 47.38569641113281, -52967.8671875, -19274.35546875, -30303.845703125, 65376.99609375, 31175.18359375, -154434.875, 187500.0, 0.012000000104308128, -0.020000001415610313, 1.0080000162124634, 192.0, 0.0, 0.0, 0.0, 0.0, 0.0, 0.0, 0.0, 0.0, 0.0, 1.598474831887699E9, 2020-08-26 15:47:11.887
19.0, 9.030104637145996, -34754.45703125, 818.1632080078125, -11708.15625, 86895.6640625, 51081.98046875, -132600.09375, 187500.0, 0.012000000104308128, -0.020000001415610313, 1.0080000162124634, 192.0, 0.0, 0.0, 0.0, 0.0, 0.0, 0.0, 0.0, 0.0, 0.0, 1.598474831887703E9, 2020-08-26 15:47:11.887
20.0, 8.091331481933594, -20289.080078125, 17912.6640625, 3694.989013671875, 105739.859375, 68416.3203125, -113896.1953125, 187500.0, 0.012000000104308128, -0.020000001415610313, 1.0080000162124634, 192.0, 0.0, 0.0, 0.0, 0.0, 0.0, 0.0, 0.0, 0.0, 0.0, 1.598474831887706E9, 2020-08-26 15:47:11.887
21.0, -28.47612190246582, -25694.826171875, 13487.8466796875, -1054.37646484375, 102509.09375, 65200.86328125, -118299.0859375, 187500.0, 0.012000000104308128, -0.020000001415610313, 1.0080000162124634, 192.0, 0.0, 0.0, 0.0, 0.0, 0.0, 0.0, 0.0, 0.0, 0.0, 1.598474831887709E9, 2020-08-26 15:47:11.887
22.0, -80.39922332763672, -45892.62109375, -7460.14013671875, -20902.703125, 80514.515625, 44788.265625, -141020.28125, 187500.0, 0.012000000104308128, -0.020000001415610313, 1.0080000162124634, 192.0, 0.0, 0.0, 0.0, 0.0, 0.0, 0.0, 0.0, 0.0, 0.0, 1.598474831887713E9, 2020-08-26 15:47:11.887
23.0, -124.56626892089844, -61145.609375, -24535.955078125, -36518.0546875, 61850.2265625, 27764.6875, -160077.734375, 187500.0, 0.012000000104308128, -0.020000001415610313, 1.0080000162124634, 192.0, 0.0, 0.0, 0.0, 0.0, 0.0, 0.0, 0.0, 0.0, 0.0, 1.598474831887716E9, 2020-08-26 15:47:11.887
24.0, -83.64022827148438, -72103.3515625, -37850.59765625, -48285.77734375, 46762.88671875, 14099.1220703125, -175110.25, 187500.0, 0.012000000104308128, -0.020000001415610313, 1.0080000162124634, 192.0, 0.0, 0.0, 0.0, 0.0, 0.0, 0.0, 0.0, 0.0, 0.0, 1.598474831887719E9, 2020-08-26 15:47:11.887
25.0, 62.45077133178711, -68462.765625, -35322.1484375, -45380.140625, 48371.9453125, 15577.109375, -172259.75, 187500.0, 0.012000000104308128, -0.020000001415610313, 1.0080000162124634, 192.0, 0.0, 0.0, 0.0, 0.0, 0.0, 0.0, 0.0, 0.0, 0.0, 1.598474831887722E9, 2020-08-26 15:47:11.887
26.0, 65.46825408935547, -52697.72265625, -18996.9921875, -30017.36328125, 65683.28125, 31464.83984375, -154204.484375, 187500.0, 0.012000000104308128, -0.020000001415610313, 1.0080000162124634, 192.0, 0.0, 96.0, 255.0, 96.0, 31.0, 128.0, 0.0, 0.0, 0.0, 1.598474831887725E9, 2020-08-26 15:47:11.887
27.0, 15.221537590026855, -35209.76171875, 335.0749816894531, -12162.58984375, 86439.578125, 50630.96875, -133128.078125, 187500.0, 0.012000000104308128, -0.020000001415610313, 1.0080000162124634, 192.0, 0.0, 0.0, 0.0, 0.0, 0.0, 0.0, 0.0, 0.0, 0.0, 1.598474831887729E9, 2020-08-26 15:47:11.887
28.0, -2.3692848682403564, -20614.923828125, 17527.9921875, 3348.5146484375, 105376.0859375, 68060.5703125, -114330.84375, 187500.0, 0.012000000104308128, -0.020000001415610313, 1.0080000162124634, 192.0, 0.0, 0.0, 0.0, 0.0, 0.0, 0.0, 0.0, 0.0, 0.0, 1.598474831887733E9, 2020-08-26 15:47:11.887
29.0, -45.46344757080078, -25092.783203125, 14071.96484375, -459.48480224609375, 103110.1328125, 65785.8515625, -117772.4296875, 187500.0, 0.012000000104308128, -0.020000001415610313, 1.0080000162124634, 192.0, 0.0, 0.0, 0.0, 0.0, 0.0, 0.0, 0.0, 0.0, 0.0, 1.598474831887737E9, 2020-08-26 15:47:11.887
0.0, 0.0, 0.0, 0.0, 0.0, 0.0, 0.0, 0.0, 0.0, 0.010000000707805157, -0.020000001415610313, 1.0080000162124634, 192.0, 0.0, 80.0, 255.0, 96.0, 31.0, 128.0, 0.0, 0.0, 0.0, 1.598474831966943E9, 2020-08-26 15:47:11.966
1.0, 5.073845863342285, -86651.34375, -58270.03515625, -65290.0234375, 22538.537109375, -8826.1220703125, -187500.015625, 187500.0, 0.010000000707805157, -0.020000001415610313, 1.0080000162124634, 192.0, 0.0, 0.0, 0.0, 0.0, 0.0, 0.0, 0.0, 0.0, 0.0, 1.598474832029648E9, 2020-08-26 15:47:12.029
2.0, 9.991229057312012, -69169.234375, -40805.03125, -48570.875, 40825.4609375, 8024.47705078125, -179355.78125, 187500.0, 0.010000000707805157, -0.020000001415610313, 1.0080000162124634, 192.0, 0.0, 0.0, 0.0, 0.0, 0.0, 0.0, 0.0, 0.0, 0.0, 1.598474832029652E9, 2020-08-26 15:47:12.029
3.0, -7.10785436630249, -50395.3359375, -20612.21875, -29685.08203125, 62299.98828125, 27898.126953125, -157532.421875, 187500.0, 0.010000000707805157, -0.020000001415610313, 1.0080000162124634, 192.0, 0.0, 0.0, 0.0, 0.0, 0.0, 0.0, 0.0, 0.0, 0.0, 1.598474832029654E9, 2020-08-26 15:47:12.029
4.0, -14.886260986328125, -34397.56640625, -2282.58251953125, -12928.29296875, 82245.875, 46310.64453125, -137648.34375, 187500.0, 0.010000000707805157, -0.020000001415610313, 1.0080000162124634, 192.0, 0.0, 0.0, 0.0, 0.0, 0.0, 0.0, 0.0, 0.0, 0.0, 1.598474832029657E9, 2020-08-26 15:47:12.029
5.0, -32.052398681640625, -37587.453125, -4591.24951171875, -15524.4482421875, 81010.8515625, 45041.87109375, -139978.671875, 187500.0, 0.010000000707805157, -0.020000001415610313, 1.0080000162124634, 192.0, 0.0, 0.0, 0.0, 0.0, 0.0, 0.0, 0.0, 0.0, 0.0, 1.598474832029659E9, 2020-08-26 15:47:12.029
6.0, -34.73461151123047, -56843.9921875, -24631.64453125, -34446.5625, 59838.48046875, 25416.5703125, -161849.328125, 187500.0, 0.010000000707805157, -0.020000001415610313, 1.0080000162124634, 192.0, 0.0, 0.0, 0.0, 0.0, 0.0, 0.0, 0.0, 0.0, 0.0, 1.598474832029662E9, 2020-08-26 15:47:12.029
7.0, -52.83952331542969, -72387.5078125, -42101.09765625, -50402.578125, 40698.703125, 7921.59228515625, -181261.0625, 187500.0, 0.010000000707805157, -0.020000001415610313, 1.0080000162124634, 192.0, 0.0, 0.0, 0.0, 0.0, 0.0, 0.0, 0.0, 0.0, 0.0, 1.598474832029665E9, 2020-08-26 15:47:12.029
8.0, -46.06694412231445, -82399.6796875, -54522.25, -61255.87109375, 26422.419921875, -4958.86865234375, -187500.015625, 187500.0, 0.012000000104308128, -0.01600000075995922, 1.0099999904632568, 192.0, 0.0, 96.0, 255.0, 128.0, 31.0, 144.0, 0.0, 0.0, 0.0, 1.598474832029683E9, 2020-08-26 15:47:12.029
9.0, -0.8717179894447327, -76897.9765625, -50037.84375, -56437.125, 29908.107421875, -1662.5897216796875, -187500.015625, 187500.0, 0.012000000104308128, -0.01600000075995922, 1.0099999904632568, 192.0, 0.0, 0.0, 0.0, 0.0, 0.0, 0.0, 0.0, 0.0, 0.0, 1.598474832029686E9, 2020-08-26 15:47:12.029
10.0, 15.266241073608398, -60612.69921875, -33025.28125, -40452.36328125, 47855.75390625, 14823.1396484375, -170651.8125, 187500.0, 0.012000000104308128, -0.01600000075995922, 1.0099999904632568, 192.0, 0.0, 0.0, 0.0, 0.0, 0.0, 0.0, 0.0, 0.0, 0.0, 1.598474832029688E9, 2020-08-26 15:47:12.029
11.0, -3.8444998264312744, -44178.33203125, -14675.640625, -23589.404296875, 67582.84375, 32972.17578125, -150624.625, 187500.0, 0.012000000104308128, -0.01600000075995922, 1.0099999904632568, 192.0, 0.0, 0.0, 0.0, 0.0, 0.0, 0.0, 0.0, 0.0, 0.0, 1.598474832029691E9, 2020-08-26 15:47:12.029
12.0, -17.479063034057617, -29102.103515625, 3098.2421875, -7533.94580078125, 87058.390625, 50916.01953125, -131325.09375, 187500.0, 0.012000000104308128, -0.01600000075995922, 1.0099999904632568, 192.0, 0.0, 0.0, 0.0, 0.0, 0.0, 0.0, 0.0, 0.0, 0.0, 1.598474832029693E9, 2020-08-26 15:47:12.029
13.0, -37.573280334472656, -32136.0859375, 1289.9190673828125, -9786.599609375, 86407.4140625, 50201.03125, -133187.71875, 187500.0, 0.012000000104308128, -0.01600000075995922, 1.0099999904632568, 192.0, 0.0, 0.0, 0.0, 0.0, 0.0, 0.0, 0.0, 0.0, 0.0, 1.598474832029695E9, 2020-08-26 15:47:12.029
14.0, -32.2312126159668, -51613.9765625, -18632.2578125, -28748.119140625, 65426.4140625, 30737.9609375, -154971.5625, 187500.0, 0.012000000104308128, -0.01600000075995922, 1.0099999904632568, 192.0, 0.0, 0.0, 0.0, 0.0, 0.0, 0.0, 0.0, 0.0, 0.0, 1.598474832029698E9, 2020-08-26 15:47:12.029
15.0, -48.1009521484375, -69007.3203125, -37767.71875, -46445.46875, 44683.2578125, 11664.078125, -176132.34375, 187500.0, 0.012000000104308128, -0.01600000075995922, 1.0099999904632568, 192.0, 0.0, 0.0, 0.0, 0.0, 0.0, 0.0, 0.0, 0.0, 0.0, 1.5984748320297E9, 2020-08-26 15:47:12.029
16.0, -47.40804672241211, -79699.390625, -50770.64453125, -57934.3125, 29876.525390625, -1736.0599365234375, -187500.015625, 187500.0, 0.012000000104308128, -0.01600000075995922, 1.0099999904632568, 192.0, 0.0, 0.0, 0.0, 0.0, 0.0, 0.0, 0.0, 0.0, 0.0, 1.598474832089445E9, 2020-08-26 15:47:12.089
17.0, -6.303191661834717, -73769.1796875, -45734.91015625, -52645.30859375, 33965.015625, 2142.43701171875, -184724.84375, 187500.0, 0.012000000104308128, -0.01600000075995922, 1.0099999904632568, 192.0, 0.0, 0.0, 0.0, 0.0, 0.0, 0.0, 0.0, 0.0, 0.0, 1.598474832089453E9, 2020-08-26 15:47:12.089
18.0, 15.065074920654297, -57153.51953125, -28227.63671875, -36259.421875, 52465.12890625, 19147.419921875, -165539.109375, 187500.0, 0.010000000707805157, -0.018000001087784767, 1.0120000839233398, 192.0, 0.0, 80.0, 255.0, 112.0, 31.0, 160.0, 0.0, 0.0, 0.0, 1.598474832089455E9, 2020-08-26 15:47:12.089
19.0, 2.0563604831695557, -42210.6875, -11314.5869140625, -20858.78125, 70807.9296875, 35927.72265625, -146949.4375, 187500.0, 0.010000000707805157, -0.018000001087784767, 1.0120000839233398, 192.0, 0.0, 0.0, 0.0, 0.0, 0.0, 0.0, 0.0, 0.0, 0.0, 1.598474832089457E9, 2020-08-26 15:47:12.089
20.0, -17.501415252685547, -27819.62890625, 5747.7734375, -5514.3984375, 89606.953125, 53212.52734375, -128354.3515625, 187500.0, 0.010000000707805157, -0.018000001087784767, 1.0120000839233398, 192.0, 0.0, 0.0, 0.0, 0.0, 0.0, 0.0, 0.0, 0.0, 0.0, 1.598474832089458E9, 2020-08-26 15:47:12.089
21.0, -43.116512298583984, -30385.228515625, 4413.1728515625, -7310.40576171875, 89466.34375, 52996.1171875, -129744.453125, 187500.0, 0.010000000707805157, -0.018000001087784767, 1.0120000839233398, 192.0, 0.0, 0.0, 0.0, 0.0, 0.0, 0.0, 0.0, 0.0, 0.0, 1.59847483208946E9, 2020-08-26 15:47:12.089
22.0, -34.62285232543945, -49192.9453125, -14766.2548828125, -25577.525390625, 69267.5625, 34289.296875, -150792.953125, 187500.0, 0.010000000707805157, -0.018000001087784767, 1.0120000839233398, 192.0, 0.0, 0.0, 0.0, 0.0, 0.0, 0.0, 0.0, 0.0, 0.0, 1.598474832089462E9, 2020-08-26 15:47:12.089
23.0, -40.65782165527344, -67712.171875, -35014.96875, -44397.73828125, 47447.25390625, 14156.87890625, -173070.28125, 187500.0, 0.010000000707805157, -0.018000001087784767, 1.0120000839233398, 192.0, 0.0, 0.0, 0.0, 0.0, 0.0, 0.0, 0.0, 0.0, 0.0, 1.598474832089463E9, 2020-08-26 15:47:12.089
24.0, -46.022239685058594, -79198.1953125, -48895.71484375, -56736.5703125, 31790.572265625, -68.0610580444336, -187500.015625, 187500.0, 0.010000000707805157, -0.018000001087784767, 1.0120000839233398, 192.0, 0.0, 0.0, 0.0, 0.0, 0.0, 0.0, 0.0, 0.0, 0.0, 1.598474832089465E9, 2020-08-26 15:47:12.089
25.0, -11.48879623413086, -72857.875, -43503.1328125, -51085.24609375, 36261.92578125, 4183.732421875, -182437.453125, 187500.0, 0.010000000707805157, -0.018000001087784767, 1.0120000839233398, 192.0, 0.0, 0.0, 0.0, 0.0, 0.0, 0.0, 0.0, 0.0, 0.0, 1.598474832089466E9, 2020-08-26 15:47:12.089
26.0, 11.131168365478516, -55374.45703125, -25094.5703125, -33831.28515625, 55686.93359375, 22085.892578125, -162264.921875, 187500.0, 0.010000000707805157, -0.018000001087784767, 1.0120000839233398, 192.0, 0.0, 0.0, 0.0, 0.0, 0.0, 0.0, 0.0, 0.0, 0.0, 1.598474832089468E9, 2020-08-26 15:47:12.089
27.0, 9.566546440124512, -41155.171875, -8892.9541015625, -19150.83984375, 73343.984375, 38195.62109375, -144379.34375, 187500.0, 0.010000000707805157, -0.018000001087784767, 1.0120000839233398, 192.0, 0.0, 0.0, 0.0, 0.0, 0.0, 0.0, 0.0, 0.0, 0.0, 1.59847483208947E9, 2020-08-26 15:47:12.089
28.0, -16.227365493774414, -27742.357421875, 7097.6171875, -4836.3583984375, 91085.3203125, 54459.75390625, -126842.234375, 187500.0, 0.00800000037997961, -0.01600000075995922, 1.0140000581741333, 192.0, 0.0, 64.0, 255.0, 128.0, 31.0, 176.0, 0.0, 0.0, 0.0, 1.598474832089471E9, 2020-08-26 15:47:12.089
29.0, -47.45275115966797, -30049.728515625, 5950.72705078125, -6427.93701171875, 91138.6953125, 54443.50390625, -128046.4765625, 187500.0, 0.00800000037997961, -0.01600000075995922, 1.0140000581741333, 192.0, 0.0, 0.0, 0.0, 0.0, 0.0, 0.0, 0.0, 0.0, 0.0, 1.598474832089473E9, 2020-08-26 15:47:12.089
30.0, -39.786102294921875, -47909.48828125, -12265.6083984375, -23755.1640625, 71915.5703125, 36689.0, -148139.0625, 187500.0, 0.00800000037997961, -0.01600000075995922, 1.0140000581741333, 192.0, 0.0, 0.0, 0.0, 0.0, 0.0, 0.0, 0.0, 0.0, 0.0, 1.598474832089474E9, 2020-08-26 15:47:12.089
31.0, -33.907596588134766, -66716.3125, -32777.0234375, -42850.68359375, 49847.046875, 16309.3525390625, -170683.90625, 187500.0, 0.00800000037997961, -0.01600000075995922, 1.0140000581741333, 192.0, 0.0, 0.0, 0.0, 0.0, 0.0, 0.0, 0.0, 0.0, 0.0, 1.598474832149723E9, 2020-08-26 15:47:12.149
32.0, -43.74236297607422, -79363.015625, -47908.75, -56398.859375, 32942.2890625, 875.5848388671875, -187477.9375, 187500.0, 0.00800000037997961, -0.01600000075995922, 1.0140000581741333, 192.0, 0.0, 0.0, 0.0, 0.0, 0.0, 0.0, 0.0, 0.0, 0.0, 1.598474832149728E9, 2020-08-26 15:47:12.149
33.0, -14.461578369140625, -72897.2578125, -42477.34375, -50676.0078125, 37453.56640625, 5183.52587890625, -181387.34375, 187500.0, 0.00800000037997961, -0.01600000075995922, 1.0140000581741333, 192.0, 0.0, 0.0, 0.0, 0.0, 0.0, 0.0, 0.0, 0.0, 0.0, 1.59847483214973E9, 2020-08-26 15:47:12.149
34.0, 5.587935924530029, -54470.70703125, -23131.685546875, -32494.048828125, 57820.5859375, 24012.166015625, -160243.71875, 187500.0, 0.00800000037997961, -0.01600000075995922, 1.0140000581741333, 192.0, 0.0, 0.0, 0.0, 0.0, 0.0, 0.0, 0.0, 0.0, 0.0, 1.598474832149731E9, 2020-08-26 15:47:12.149
35.0, 14.752150535583496, -40121.55859375, -6765.26953125, -17667.466796875, 75648.828125, 40289.21875, -142194.390625, 187500.0, 0.00800000037997961, -0.01600000075995922, 1.0140000581741333, 192.0, 0.0, 0.0, 0.0, 0.0, 0.0, 0.0, 0.0, 0.0, 0.0, 1.598474832149733E9, 2020-08-26 15:47:12.149
36.0, -11.980534553527832, -27994.083984375, 7865.35498046875, -4675.515625, 92032.609375, 55235.00390625, -126011.109375, 187500.0, 0.00800000037997961, -0.01600000075995922, 1.0140000581741333, 192.0, 0.0, 0.0, 0.0, 0.0, 0.0, 0.0, 0.0, 0.0, 0.0, 1.598474832149735E9, 2020-08-26 15:47:12.149
37.0, -49.46440887451172, -30356.619140625, 6568.26123046875, -6375.87939453125, 91939.0, 55084.53125, -127360.328125, 187500.0, 0.00800000037997961, -0.01600000075995922, 1.0140000581741333, 192.0, 0.0, 0.0, 0.0, 0.0, 0.0, 0.0, 0.0, 0.0, 0.0, 1.598474832149737E9, 2020-08-26 15:47:12.149
38.0, -45.26227951049805, -47318.171875, -10775.1494140625, -22824.6171875, 73597.71875, 38193.00390625, -146578.015625, 187500.0, 0.010000000707805157, -0.018000001087784767, 1.0160000324249268, 192.0, 0.0, 80.0, 255.0, 112.0, 31.0, 192.0, 0.0, 0.0, 0.0, 1.598474832149738E9, 2020-08-26 15:47:12.149
39.0, -31.7841796875, -65646.7578125, -30773.27734375, -41424.12890625, 52055.2421875, 18321.478515625, -168608.1875, 187500.0, 0.010000000707805157, -0.018000001087784767, 1.0160000324249268, 192.0, 0.0, 0.0, 0.0, 0.0, 0.0, 0.0, 0.0, 0.0, 0.0, 1.59847483214974E9, 2020-08-26 15:47:12.149
40.0, -38.60145950317383, -79586.0, -47256.7734375, -56282.94140625, 33807.97265625, 1576.870849609375, -186744.75, 187500.0, 0.010000000707805157, -0.018000001087784767, 1.0160000324249268, 192.0, 0.0, 0.0, 0.0, 0.0, 0.0, 0.0, 0.0, 0.0, 0.0, 1.598474832149742E9, 2020-08-26 15:47:12.149
41.0, -15.5791654586792, -73372.1484375, -42174.20703125, -50864.05078125, 37969.30859375, 5550.2734375, -181009.65625, 187500.0, 0.010000000707805157, -0.018000001087784767, 1.0160000324249268, 192.0, 0.0, 0.0, 0.0, 0.0, 0.0, 0.0, 0.0, 0.0, 0.0, 1.598474832149744E9, 2020-08-26 15:47:12.149
42.0, -0.20116569101810455, -54131.65234375, -22051.716796875, -31895.177734375, 59114.171875, 25147.208984375, -159111.109375, 187500.0, 0.010000000707805157, -0.018000001087784767, 1.0160000324249268, 192.0, 0.0, 0.0, 0.0, 0.0, 0.0, 0.0, 0.0, 0.0, 0.0, 1.598474832149746E9, 2020-08-26 15:47:12.149
43.0, 13.992191314697266, -39060.38671875, -4927.86669921875, -16329.22265625, 77714.2890625, 42166.98828125, -140302.609375, 187500.0, 0.010000000707805157, -0.018000001087784767, 1.0160000324249268, 192.0, 0.0, 0.0, 0.0, 0.0, 0.0, 0.0, 0.0, 0.0, 0.0, 1.598474832149747E9, 2020-08-26 15:47:12.149
44.0, -6.0573225021362305, -28100.58984375, 8497.283203125, -4509.576171875, 92907.2109375, 55943.46484375, -125310.984375, 187500.0, 0.010000000707805157, -0.018000001087784767, 1.0160000324249268, 192.0, 0.0, 0.0, 0.0, 0.0, 0.0, 0.0, 0.0, 0.0, 0.0, 1.598474832149749E9, 2020-08-26 15:47:12.149
45.0, -49.17383575439453, -30931.236328125, 6634.42236328125, -6725.75146484375, 92251.3203125, 55256.640625, -127211.2578125, 187500.0, 0.010000000707805157, -0.018000001087784767, 1.0160000324249268, 192.0, 0.0, 0.0, 0.0, 0.0, 0.0, 0.0, 0.0, 0.0, 0.0, 1.598474832149751E9, 2020-08-26 15:47:12.149
46.0, -50.93962478637695, -47230.59765625, -10090.248046875, -22541.0859375, 74526.4765625, 38977.05859375, -145807.625, 187500.0, 0.010000000707805157, -0.018000001087784767, 1.0160000324249268, 192.0, 0.0, 0.0, 0.0, 0.0, 0.0, 0.0, 0.0, 0.0, 0.0, 1.59847483220999E9, 2020-08-26 15:47:12.209
47.0, -34.13111114501953, -64657.26953125, -29146.451171875, -40218.6328125, 53931.1796875, 20029.6875, -166896.46875, 187500.0, 0.010000000707805157, -0.018000001087784767, 1.0160000324249268, 192.0, 0.0, 0.0, 0.0, 0.0, 0.0, 0.0, 0.0, 0.0, 0.0, 1.598474832209998E9, 2020-08-26 15:47:12.209
48.0, -31.381847381591797, -79514.296875, -46549.4296875, -55980.703125, 34769.390625, 2390.29541015625, -185955.53125, 187500.0, 0.014000000432133675, -0.01600000075995922, 1.0160000324249268, 192.0, 0.0, 112.0, 255.0, 128.0, 31.0, 192.0, 0.0, 0.0, 0.0, 1.598474832210003E9, 2020-08-26 15:47:12.210
49.0, -14.260412216186523, -73987.46875, -42242.31640625, -51287.796875, 38148.48046875, 5614.35546875, -181008.75, 187500.0, 0.014000000432133675, -0.01600000075995922, 1.0160000324249268, 192.0, 0.0, 0.0, 0.0, 0.0, 0.0, 0.0, 0.0, 0.0, 0.0, 1.598474832210007E9, 2020-08-26 15:47:12.210
50.0, -4.716217994689941, -54250.38671875, -21672.1171875, -31849.580078125, 59737.0703125, 25650.2578125, -158668.75, 187500.0, 0.014000000432133675, -0.01600000075995922, 1.0160000324249268, 192.0, 0.0, 0.0, 0.0, 0.0, 0.0, 0.0, 0.0, 0.0, 0.0, 1.59847483221001E9, 2020-08-26 15:47:12.210
51.0, 9.70065689086914, -38195.15234375, -3529.16162109375, -15284.3681640625, 79362.6171875, 43668.82421875, -138847.9375, 187500.0, 0.014000000432133675, -0.01600000075995922, 1.0160000324249268, 192.0, 0.0, 0.0, 0.0, 0.0, 0.0, 0.0, 0.0, 0.0, 0.0, 1.598474832210014E9, 2020-08-26 15:47:12.210
52.0, 1.542270302772522, -27805.078125, 9348.9296875, -4013.2109375, 94014.25, 56913.44140625, -124402.40625, 187500.0, 0.014000000432133675, -0.01600000075995922, 1.0160000324249268, 192.0, 0.0, 0.0, 0.0, 0.0, 0.0, 0.0, 0.0, 0.0, 0.0, 1.598474832210018E9, 2020-08-26 15:47:12.210
53.0, -47.095123291015625, -31548.703125, 6487.01220703125, -7181.97265625, 92357.984375, 55257.04296875, -127293.8515625, 187500.0, 0.014000000432133675, -0.01600000075995922, 1.0160000324249268, 192.0, 0.0, 0.0, 0.0, 0.0, 0.0, 0.0, 0.0, 0.0, 0.0, 1.598474832210022E9, 2020-08-26 15:47:12.210
54.0, -54.56060791015625, -47537.33203125, -9993.375, -22722.87109375, 74872.734375, 39220.08984375, -145644.453125, 187500.0, 0.014000000432133675, -0.01600000075995922, 1.0160000324249268, 192.0, 0.0, 0.0, 0.0, 0.0, 0.0, 0.0, 0.0, 0.0, 0.0, 1.598474832210025E9, 2020-08-26 15:47:12.210
55.0, -39.629642486572266, -63954.39453125, -28020.279296875, -39381.8046875, 55309.859375, 21280.6484375, -165705.5625, 187500.0, 0.014000000432133675, -0.01600000075995922, 1.0160000324249268, 192.0, 0.0, 0.0, 0.0, 0.0, 0.0, 0.0, 0.0, 0.0, 0.0, 1.598474832210029E9, 2020-08-26 15:47:12.210
56.0, -24.855138778686523, -78974.296875, -45547.4453125, -55278.2109375, 36028.6875, 3524.713623046875, -184897.796875, 187500.0, 0.014000000432133675, -0.01600000075995922, 1.0160000324249268, 192.0, 0.0, 0.0, 0.0, 0.0, 0.0, 0.0, 0.0, 0.0, 0.0, 1.598474832210033E9, 2020-08-26 15:47:12.210
57.0, -11.913479804992676, -74580.8203125, -42449.40234375, -51748.421875, 38203.109375, 5580.626953125, -181175.390625, 187500.0, 0.014000000432133675, -0.01600000075995922, 1.0160000324249268, 192.0, 0.0, 0.0, 0.0, 0.0, 0.0, 0.0, 0.0, 0.0, 0.0, 1.598474832210038E9, 2020-08-26 15:47:12.210
58.0, -7.979572296142578, -54705.17578125, -21807.74609375, -32207.341796875, 59857.9921875, 25691.2734375, -158757.640625, 187500.0, 0.014000000432133675, -0.01600000075995922, 1.0160000324249268, 192.0, 0.0, 0.0, 0.0, 0.0, 0.0, 0.0, 0.0, 0.0, 0.0, 1.598474832210042E9, 2020-08-26 15:47:12.210
59.0, 4.447997093200684, -37680.8828125, -2676.4873046875, -14667.6162109375, 80464.46875, 44672.53125, -137949.21875, 187500.0, 0.01600000075995922, -0.018000001087784767, 1.0160000324249268, 192.0, 0.0, 128.0, 255.0, 112.0, 31.0, 192.0, 0.0, 0.0, 0.0, 1.598474832210046E9, 2020-08-26 15:47:12.210
60.0, 5.610287666320801, -27069.66015625, 10479.369140625, -3140.73291015625, 95399.6796875, 58188.71875, -123220.046875, 187500.0, 0.01600000075995922, -0.018000001087784767, 1.0160000324249268, 192.0, 0.0, 0.0, 0.0, 0.0, 0.0, 0.0, 0.0, 0.0, 0.0, 1.59847483221005E9, 2020-08-26 15:47:12.210
61.0, -43.809417724609375, -32077.970703125, 6302.87890625, -7587.54541015625, 92427.7890625, 55250.44921875, -127417.5, 187500.0, 0.01600000075995922, -0.018000001087784767, 1.0160000324249268, 192.0, 0.0, 0.0, 0.0, 0.0, 0.0, 0.0, 0.0, 0.0, 0.0, 1.598474832270345E9, 2020-08-26 15:47:12.270
62.0, -56.72872543334961, -48128.265625, -10309.5625, -23228.759765625, 74801.8125, 39086.44921875, -145898.25, 187500.0, 0.01600000075995922, -0.018000001087784767, 1.0160000324249268, 192.0, 0.0, 0.0, 0.0, 0.0, 0.0, 0.0, 0.0, 0.0, 0.0, 1.598474832270353E9, 2020-08-26 15:47:12.270
63.0, -45.41874313354492, -63635.4140625, -27429.76953125, -38986.58203125, 56144.00390625, 22031.95703125, -165057.046875, 187500.0, 0.01600000075995922, -0.018000001087784767, 1.0160000324249268, 192.0, 0.0, 0.0, 0.0, 0.0, 0.0, 0.0, 0.0, 0.0, 0.0, 1.598474832270355E9, 2020-08-26 15:47:12.270
64.0, -22.932889938354492, -78107.1640625, -44346.8671875, -54299.55859375, 37480.69921875, 4865.03564453125, -183654.0625, 187500.0, 0.01600000075995922, -0.018000001087784767, 1.0160000324249268, 192.0, 0.0, 0.0, 0.0, 0.0, 0.0, 0.0, 0.0, 0.0, 0.0, 1.598474832270357E9, 2020-08-26 15:47:12.270
65.0, -6.414950370788574, -74980.53125, -42545.0234375, -52035.375, 38360.6875, 5652.66650390625, -181241.390625, 187500.0, 0.01600000075995922, -0.018000001087784767, 1.0160000324249268, 192.0, 0.0, 0.0, 0.0, 0.0, 0.0, 0.0, 0.0, 0.0, 0.0, 1.598474832270359E9, 2020-08-26 15:47:12.270
66.0, -8.538366317749023, -55367.83984375, -22242.7109375, -32795.1953125, 59666.37109375, 25434.7421875, -159167.59375, 187500.0, 0.01600000075995922, -0.018000001087784767, 1.0160000324249268, 192.0, 0.0, 0.0, 0.0, 0.0, 0.0, 0.0, 0.0, 0.0, 0.0, 1.598474832270362E9, 2020-08-26 15:47:12.270
67.0, -1.0505319833755493, -37534.79296875, -2316.35595703125, -14455.095703125, 81061.4140625, 45193.70703125, -137565.453125, 187500.0, 0.01600000075995922, -0.018000001087784767, 1.0160000324249268, 192.0, 0.0, 0.0, 0.0, 0.0, 0.0, 0.0, 0.0, 0.0, 0.0, 1.598474832270364E9, 2020-08-26 15:47:12.270
68.0, 5.2303080558776855, -26156.279296875, 11670.8515625, -2124.734375, 96831.9140625, 59521.328125, -122007.0625, 187500.0, 0.01600000075995922, -0.018000001087784767, 1.0160000324249268, 192.0, 0.0, 0.0, 0.0, 0.0, 0.0, 0.0, 0.0, 0.0, 0.0, 1.598474832270367E9, 2020-08-26 15:47:12.270
69.0, -37.26035690307617, -32292.099609375, 6359.048828125, -7690.1396484375, 92724.78125, 55475.75390625, -127328.0078125, 187500.0, 0.01600000075995922, -0.014000000432133675, 1.0080000162124634, 192.0, 0.0, 128.0, 255.0, 144.0, 31.0, 128.0, 0.0, 0.0, 0.0, 1.598474832270369E9, 2020-08-26 15:47:12.270
70.0, -56.12522888183594, -48817.90625, -10803.916015625, -23844.818359375, 74538.953125, 38776.8125, -146351.9375, 187500.0, 0.01600000075995922, -0.014000000432133675, 1.0080000162124634, 192.0, 0.0, 0.0, 0.0, 0.0, 0.0, 0.0, 0.0, 0.0, 0.0, 1.598474832270371E9, 2020-08-26 15:47:12.270
71.0, -50.53729248046875, -63686.578125, -27311.08203125, -38985.46484375, 56484.890625, 22320.09375, -164900.5, 187500.0, 0.01600000075995922, -0.014000000432133675, 1.0080000162124634, 192.0, 0.0, 0.0, 0.0, 0.0, 0.0, 0.0, 0.0, 0.0, 0.0, 1.598474832270373E9, 2020-08-26 15:47:12.270
72.0, -26.0621337890625, -77229.25, -43244.69921875, -53346.66015625, 38807.69921875, 6114.9453125, -182539.0, 187500.0, 0.01600000075995922, -0.014000000432133675, 1.0080000162124634, 192.0, 0.0, 0.0, 0.0, 0.0, 0.0, 0.0, 0.0, 0.0, 0.0, 1.598474832270376E9, 2020-08-26 15:47:12.270
73.0, 0.4023313820362091, -74961.6015625, -42282.90625, -51922.69921875, 38848.984375, 6080.65771484375, -181044.75, 187500.0, 0.01600000075995922, -0.014000000432133675, 1.0080000162124634, 192.0, 0.0, 0.0, 0.0, 0.0, 0.0, 0.0, 0.0, 0.0, 0.0, 1.598474832270378E9, 2020-08-26 15:47:12.270
74.0, -7.286668300628662, -56063.828125, -22766.994140625, -33432.26171875, 59366.12109375, 25093.810546875, -159777.859375, 187500.0, 0.01600000075995922, -0.014000000432133675, 1.0080000162124634, 192.0, 0.0, 0.0, 0.0, 0.0, 0.0, 0.0, 0.0, 0.0, 0.0, 1.59847483227038E9, 2020-08-26 15:47:12.270
75.0, -5.766749858856201, -37756.765625, -2410.434326171875, -14646.740234375, 81187.65625, 45270.86328125, -137739.53125, 187500.0, 0.01600000075995922, -0.014000000432133675, 1.0080000162124634, 192.0, 0.0, 0.0, 0.0, 0.0, 0.0, 0.0, 0.0, 0.0, 0.0, 1.598474832270382E9, 2020-08-26 15:47:12.270
76.0, 0.6482005715370178, -25379.2421875, 12625.6953125, -1296.892822265625, 97998.046875, 60615.4921875, -121137.109375, 187500.0, 0.01600000075995922, -0.014000000432133675, 1.0080000162124634, 192.0, 0.0, 0.0, 0.0, 0.0, 0.0, 0.0, 0.0, 0.0, 0.0, 1.598474832329763E9, 2020-08-26 15:47:12.329
77.0, -29.638412475585938, -32015.453125, 6855.83837890625, -7335.43994140625, 93431.984375, 56117.42578125, -126915.5234375, 187500.0, 0.01600000075995922, -0.014000000432133675, 1.0080000162124634, 192.0, 0.0, 0.0, 0.0, 0.0, 0.0, 0.0, 0.0, 0.0, 0.0, 1.598474832329774E9, 2020-08-26 15:47:12.329
78.0, -54.180625915527344, -49488.66015625, -11316.3525390625, -24463.693359375, 74231.9296875, 38432.796875, -146941.609375, 187500.0, 0.01600000075995922, -0.014000000432133675, 1.0080000162124634, 192.0, 0.0, 0.0, 0.0, 0.0, 0.0, 0.0, 0.0, 0.0, 0.0, 1.598474832329777E9, 2020-08-26 15:47:12.329
79.0, -54.09122085571289, -64076.68359375, -27589.896484375, -39348.8359375, 56403.8203125, 22204.580078125, -165252.78125, 187500.0, 0.012000000104308128, -0.018000001087784767, 1.0080000162124634, 192.0, 0.0, 96.0, 255.0, 112.0, 31.0, 128.0, 0.0, 0.0, 0.0, 1.598474832329781E9, 2020-08-26 15:47:12.329
80.0, -31.33714485168457, -76608.3203125, -42474.32421875, -52682.94921875, 39771.23828125, 7019.900390625, -181861.03125, 187500.0, 0.012000000104308128, -0.018000001087784767, 1.0080000162124634, 192.0, 0.0, 0.0, 0.0, 0.0, 0.0, 0.0, 0.0, 0.0, 0.0, 1.598474832329785E9, 2020-08-26 15:47:12.329
81.0, 6.839633464813232, -74432.2421875, -41547.46484375, -51312.94140625, 39783.4453125, 6950.63232421875, -180501.640625, 187500.0, 0.012000000104308128, -0.018000001087784767, 1.0080000162124634, 192.0, 0.0, 0.0, 0.0, 0.0, 0.0, 0.0, 0.0, 0.0, 0.0, 1.598474832329789E9, 2020-08-26 15:47:12.329
82.0, -4.6268110275268555, -56696.359375, -23243.578125, -33998.7890625, 59084.15234375, 24781.490234375, -160481.546875, 187500.0, 0.012000000104308128, -0.018000001087784767, 1.0080000162124634, 192.0, 0.0, 0.0, 0.0, 0.0, 0.0, 0.0, 0.0, 0.0, 0.0, 1.598474832329792E9, 2020-08-26 15:47:12.329
83.0, -8.761883735656738, -38288.44921875, -2836.525634765625, -15140.490234375, 80945.96875, 45006.28515625, -138385.609375, 187500.0, 0.012000000104308128, -0.018000001087784767, 1.0080000162124634, 192.0, 0.0, 0.0, 0.0, 0.0, 0.0, 0.0, 0.0, 0.0, 0.0, 1.598474832329794E9, 2020-08-26 15:47:12.329
84.0, -4.783273220062256, -24928.498046875, 13203.2421875, -803.09814453125, 98762.03125, 61326.43359375, -120775.34375, 187500.0, 0.012000000104308128, -0.018000001087784767, 1.0080000162124634, 192.0, 0.0, 0.0, 0.0, 0.0, 0.0, 0.0, 0.0, 0.0, 0.0, 1.598474832329797E9, 2020-08-26 15:47:12.329
85.0, -25.41393280029297, -31284.05859375, 7779.39013671875, -6517.85791015625, 94550.890625, 57164.16015625, -126196.0234375, 187500.0, 0.012000000104308128, -0.018000001087784767, 1.0080000162124634, 192.0, 0.0, 0.0, 0.0, 0.0, 0.0, 0.0, 0.0, 0.0, 0.0, 1.598474832329798E9, 2020-08-26 15:47:12.329
86.0, -50.425533294677734, -50028.6328125, -11703.6416015625, -24921.6796875, 74040.8671875, 38202.37109375, -147512.25, 187500.0, 0.012000000104308128, -0.018000001087784767, 1.0080000162124634, 192.0, 0.0, 0.0, 0.0, 0.0, 0.0, 0.0, 0.0, 0.0, 0.0, 1.598474832329801E9, 2020-08-26 15:47:12.329
87.0, -56.03582000732422, -64706.30859375, -28128.484375, -39927.90234375, 56055.46875, 21825.359375, -165963.3125, 187500.0, 0.012000000104308128, -0.018000001087784767, 1.0080000162124634, 192.0, 0.0, 0.0, 0.0, 0.0, 0.0, 0.0, 0.0, 0.0, 0.0, 1.598474832329804E9, 2020-08-26 15:47:12.329
88.0, -36.768619537353516, -76347.7890625, -42119.515625, -52373.15234375, 40314.140625, 7514.99169921875, -181670.125, 187500.0, 0.012000000104308128, -0.018000001087784767, 1.0080000162124634, 192.0, 0.0, 0.0, 0.0, 0.0, 0.0, 0.0, 0.0, 0.0, 0.0, 1.598474832329806E9, 2020-08-26 15:47:12.329
89.0, 8.583069801330566, -73584.46875, -40538.93359375, -50380.40625, 40984.87109375, 8086.88330078125, -179651.15625, 187500.0, 0.004000000189989805, -0.01600000075995922, 1.0099999904632568, 192.0, 0.0, 32.0, 255.0, 128.0, 31.0, 144.0, 0.0, 0.0, 0.0, 1.598474832329808E9, 2020-08-26 15:47:12.329
90.0, 0.7376075387001038, -57092.5234375, -23505.205078125, -34314.93359375, 59018.4140625, 24684.439453125, -160882.90625, 187500.0, 0.004000000189989805, -0.01600000075995922, 1.0099999904632568, 192.0, 0.0, 0.0, 0.0, 0.0, 0.0, 0.0, 0.0, 0.0, 0.0, 1.598474832329811E9, 2020-08-26 15:47:12.329
91.0, -9.38773250579834, -38972.1875, -3458.932373046875, -15782.767578125, 80516.5703125, 44563.1171875, -139130.703125, 187500.0, 0.004000000189989805, -0.01600000075995922, 1.0099999904632568, 192.0, 0.0, 0.0, 0.0, 0.0, 0.0, 0.0, 0.0, 0.0, 0.0, 1.598474832389441E9, 2020-08-26 15:47:12.389
92.0, -10.415912628173828, -24832.048828125, 13349.8916015625, -677.9954223632812, 99096.2109375, 61634.1953125, -120745.703125, 187500.0, 0.004000000189989805, -0.01600000075995922, 1.0099999904632568, 192.0, 0.0, 0.0, 0.0, 0.0, 0.0, 0.0, 0.0, 0.0, 0.0, 1.598474832389448E9, 2020-08-26 15:47:12.389
93.0, -26.732685089111328, -30386.45703125, 8800.3955078125, -5556.91162109375, 95758.3125, 58319.56640625, -125298.1953125, 187500.0, 0.004000000189989805, -0.01600000075995922, 1.0099999904632568, 192.0, 0.0, 0.0, 0.0, 0.0, 0.0, 0.0, 0.0, 0.0, 0.0, 1.59847483238945E9, 2020-08-26 15:47:12.389
94.0, -44.16704559326172, -50226.55859375, -11772.015625, -25042.53515625, 74160.3359375, 38290.79296875, -147694.75, 187500.0, 0.004000000189989805, -0.01600000075995922, 1.0099999904632568, 192.0, 0.0, 0.0, 0.0, 0.0, 0.0, 0.0, 0.0, 0.0, 0.0, 1.598474832389451E9, 2020-08-26 15:47:12.389
95.0, -55.85700607299805, -65415.86328125, -28774.5625, -40594.96875, 55589.8828125, 21349.759765625, -166713.75, 187500.0, 0.004000000189989805, -0.01600000075995922, 1.0099999904632568, 192.0, 0.0, 0.0, 0.0, 0.0, 0.0, 0.0, 0.0, 0.0, 0.0, 1.598474832389453E9, 2020-08-26 15:47:12.389
96.0, -42.28949737548828, -76441.484375, -42168.93359375, -52445.28125, 40437.79296875, 7614.94873046875, -181826.671875, 187500.0, 0.004000000189989805, -0.01600000075995922, 1.0099999904632568, 192.0, 0.0, 0.0, 0.0, 0.0, 0.0, 0.0, 0.0, 0.0, 0.0, 1.598474832389455E9, 2020-08-26 15:47:12.389
97.0, 5.520880699157715, -72736.171875, -39581.3828125, -49480.859375, 42115.1328125, 9160.83984375, -178818.671875, 187500.0, 0.004000000189989805, -0.01600000075995922, 1.0099999904632568, 192.0, 0.0, 0.0, 0.0, 0.0, 0.0, 0.0, 0.0, 0.0, 0.0, 1.598474832389456E9, 2020-08-26 15:47:12.389
98.0, 7.890165328979492, -57058.16796875, -23335.734375, -34199.26171875, 59362.453125, 24983.4609375, -160830.765625, 187500.0, 0.004000000189989805, -0.01600000075995922, 1.0099999904632568, 192.0, 0.0, 0.0, 0.0, 0.0, 0.0, 0.0, 0.0, 0.0, 0.0, 1.598474832389458E9, 2020-08-26 15:47:12.389
99.0, -8.136034965515137, -39686.125, -4102.5283203125, -16443.306640625, 80040.1640625, 44066.953125, -139878.15625, 187500.0, 0.006000000052154064, -0.01600000075995922, 1.00600004196167, 192.0, 0.0, 48.0, 255.0, 128.0, 31.0, 112.0, 0.0, 0.0, 0.0, 1.598474832389459E9, 2020-08-26 15:47:12.389
100.0, -15.221537590026855, -25100.806640625, 13119.7138671875, -913.3816528320312, 99027.75, 61543.26953125, -121076.78125, 187500.0, 0.006000000052154064, -0.01600000075995922, 1.00600004196167, 192.0, 0.0, 0.0, 0.0, 0.0, 0.0, 0.0, 0.0, 0.0, 0.0, 1.598474832389461E9, 2020-08-26 15:47:12.389
101.0, -31.672420501708984, -29626.72265625, 9650.8798828125, -4742.7939453125, 96772.546875, 59281.33984375, -124547.578125, 187500.0, 0.006000000052154064, -0.01600000075995922, 1.00600004196167, 192.0, 0.0, 0.0, 0.0, 0.0, 0.0, 0.0, 0.0, 0.0, 0.0, 1.598474832389462E9, 2020-08-26 15:47:12.389
102.0, -36.299232482910156, -49927.24609375, -11335.5078125, -24656.140625, 74763.7890625, 38845.65234375, -147346.40625, 187500.0, 0.006000000052154064, -0.01600000075995922, 1.00600004196167, 192.0, 0.0, 0.0, 0.0, 0.0, 0.0, 0.0, 0.0, 0.0, 0.0, 1.598474832389464E9, 2020-08-26 15:47:12.389
103.0, -53.465370178222656, -66101.1015625, -29382.23828125, -41217.30859375, 55144.74609375, 20888.240234375, -167398.171875, 187500.0, 0.006000000052154064, -0.01600000075995922, 1.00600004196167, 192.0, 0.0, 0.0, 0.0, 0.0, 0.0, 0.0, 0.0, 0.0, 0.0, 1.598474832389466E9, 2020-08-26 15:47:12.389
104.0, -45.95518493652344, -76874.890625, -42568.44921875, -52840.28125, 40195.453125, 7360.294921875, -182309.21875, 187500.0, 0.006000000052154064, -0.01600000075995922, 1.00600004196167, 192.0, 0.0, 0.0, 0.0, 0.0, 0.0, 0.0, 0.0, 0.0, 0.0, 1.598474832389467E9, 2020-08-26 15:47:12.389
105.0, -0.2905726730823517, -72153.484375, -38927.23828125, -48848.83984375, 42928.06640625, 9935.0146484375, -178291.96875, 187500.0, 0.006000000052154064, -0.01600000075995922, 1.00600004196167, 192.0, 0.0, 0.0, 0.0, 0.0, 0.0, 0.0, 0.0, 0.0, 0.0, 1.598474832389469E9, 2020-08-26 15:47:12.389
106.0, 14.372171401977539, -56504.89453125, -22649.40234375, -33566.91015625, 60213.1171875, 25787.162109375, -160283.84375, 187500.0, 0.006000000052154064, -0.01600000075995922, 1.00600004196167, 192.0, 0.0, 0.0, 0.0, 0.0, 0.0, 0.0, 0.0, 0.0, 0.0, 1.59847483244973E9, 2020-08-26 15:47:12.449
107.0, -4.917383670806885, -40316.375, -4650.6376953125, -17015.33203125, 79651.0390625, 43668.51171875, -140558.96875, 187500.0, 0.006000000052154064, -0.01600000075995922, 1.00600004196167, 192.0, 0.0, 0.0, 0.0, 0.0, 0.0, 0.0, 0.0, 0.0, 0.0, 1.598474832449736E9, 2020-08-26 15:47:12.449
108.0, -17.926097869873047, -25624.955078125, 12616.1513671875, -1418.083984375, 98673.09375, 61188.81640625, -121712.421875, 187500.0, 0.006000000052154064, -0.01600000075995922, 1.00600004196167, 192.0, 0.0, 0.0, 0.0, 0.0, 0.0, 0.0, 0.0, 0.0, 0.0, 1.598474832449737E9, 2020-08-26 15:47:12.449
109.0, -37.12624740600586, -29107.69140625, 10214.9931640625, -4200.38427734375, 97485.6328125, 59965.63671875, -124122.3828125, 187500.0, 0.006000000052154064, -0.012000000104308128, 1.00600004196167, 192.0, 0.0, 48.0, 255.0, 160.0, 31.0, 112.0, 0.0, 0.0, 0.0, 1.598474832449739E9, 2020-08-26 15:47:12.449
110.0, -32.566490173339844, -49125.19921875, -10409.7431640625, -23787.8203125, 75844.0703125, 39876.359375, -146556.34375, 187500.0, 0.006000000052154064, -0.012000000104308128, 1.00600004196167, 192.0, 0.0, 0.0, 0.0, 0.0, 0.0, 0.0, 0.0, 0.0, 0.0, 1.598474832449741E9, 2020-08-26 15:47:12.449
111.0, -48.99502182006836, -66594.2265625, -29782.22265625, -41651.8046875, 54894.25, 20624.06640625, -167923.3125, 187500.0, 0.006000000052154064, -0.012000000104308128, 1.00600004196167, 192.0, 0.0, 0.0, 0.0, 0.0, 0.0, 0.0, 0.0, 0.0, 0.0, 1.598474832449743E9, 2020-08-26 15:47:12.449
112.0, -46.871604919433594, -77480.84375, -43144.98828125, -53427.23828125, 39759.81640625, 6925.03955078125, -182999.625, 187500.0, 0.006000000052154064, -0.012000000104308128, 1.00600004196167, 192.0, 0.0, 0.0, 0.0, 0.0, 0.0, 0.0, 0.0, 0.0, 0.0, 1.598474832449745E9, 2020-08-26 15:47:12.449
113.0, -5.565584182739258, -71886.3359375, -38627.58984375, -48567.34375, 43368.3515625, 10353.5732421875, -178075.015625, 187500.0, 0.006000000052154064, -0.012000000104308128, 1.00600004196167, 192.0, 0.0, 0.0, 0.0, 0.0, 0.0, 0.0, 0.0, 0.0, 0.0, 1.598474832449746E9, 2020-08-26 15:47:12.449
114.0, 15.087427139282227, -55619.02734375, -21652.22265625, -32621.185546875, 61352.09375, 26883.224609375, -159367.984375, 187500.0, 0.006000000052154064, -0.012000000104308128, 1.00600004196167, 192.0, 0.0, 0.0, 0.0, 0.0, 0.0, 0.0, 0.0, 0.0, 0.0, 1.598474832449748E9, 2020-08-26 15:47:12.449
115.0, 0.46938660740852356, -40664.640625, -4896.9541015625, -17297.92578125, 79548.15625, 43547.69921875, -140879.84375, 187500.0, 0.006000000052154064, -0.012000000104308128, 1.00600004196167, 192.0, 0.0, 0.0, 0.0, 0.0, 0.0, 0.0, 0.0, 0.0, 0.0, 1.59847483244975E9, 2020-08-26 15:47:12.449
116.0, -18.97663116455078, -26216.896484375, 12067.7734375, -1976.363525390625, 98262.515625, 60770.27734375, -122337.4375, 187500.0, 0.006000000052154064, -0.012000000104308128, 1.00600004196167, 192.0, 0.0, 0.0, 0.0, 0.0, 0.0, 0.0, 0.0, 0.0, 0.0, 1.598474832449752E9, 2020-08-26 15:47:12.449
117.0, -43.116512298583984, -28741.4375, 10635.1162109375, -3805.853759765625, 98036.4453125, 60483.484375, -123801.859375, 187500.0, 0.006000000052154064, -0.012000000104308128, 1.00600004196167, 192.0, 0.0, 0.0, 0.0, 0.0, 0.0, 0.0, 0.0, 0.0, 0.0, 1.598474832449754E9, 2020-08-26 15:47:12.449
118.0, -33.594669342041016, -48081.9296875, -9228.9453125, -22673.765625, 77164.5, 41138.65234375, -145458.265625, 187500.0, 0.006000000052154064, -0.012000000104308128, 1.00600004196167, 192.0, 0.0, 0.0, 0.0, 0.0, 0.0, 0.0, 0.0, 0.0, 0.0, 1.598474832449755E9, 2020-08-26 15:47:12.449
119.0, -42.445960998535156, -66665.7109375, -29707.546875, -41635.75390625, 55117.7890625, 20809.763671875, -167917.453125, 187500.0, 0.010000000707805157, -0.014000000432133675, 1.0120000839233398, 192.0, 0.0, 80.0, 255.0, 144.0, 31.0, 160.0, 0.0, 0.0, 0.0, 1.598474832449757E9, 2020-08-26 15:47:12.449
120.0, -46.4245719909668, -78112.1953125, -43694.44140625, -54001.12109375, 39353.8203125, 6501.83154296875, -183594.46875, 187500.0, 0.010000000707805157, -0.014000000432133675, 1.0120000839233398, 192.0, 0.0, 0.0, 0.0, 0.0, 0.0, 0.0, 0.0, 0.0, 0.0, 1.598474832449759E9, 2020-08-26 15:47:12.449
121.0, -11.309982299804688, -71935.890625, -38618.0703125, -48575.58984375, 43512.87890625, 10477.849609375, -178027.59375, 187500.0, 0.010000000707805157, -0.014000000432133675, 1.0120000839233398, 192.0, 0.0, 0.0, 0.0, 0.0, 0.0, 0.0, 0.0, 0.0, 0.0, 1.598474832510005E9, 2020-08-26 15:47:12.510
122.0, 11.421740531921387, -54701.734375, -20615.9296875, -31637.037109375, 62525.73828125, 28007.763671875, -158273.703125, 187500.0, 0.010000000707805157, -0.014000000432133675, 1.0120000839233398, 192.0, 0.0, 0.0, 0.0, 0.0, 0.0, 0.0, 0.0, 0.0, 0.0, 1.598474832510011E9, 2020-08-26 15:47:12.510
123.0, 7.800758361816406, -40508.578125, -4589.55078125, -17047.25, 79994.859375, 43960.6953125, -140515.78125, 187500.0, 0.010000000707805157, -0.014000000432133675, 1.0120000839233398, 192.0, 0.0, 0.0, 0.0, 0.0, 0.0, 0.0, 0.0, 0.0, 0.0, 1.598474832510013E9, 2020-08-26 15:47:12.510
124.0, -17.68022918701172, -26809.552734375, 11568.435546875, -2498.902587890625, 97896.3671875, 60394.03125, -122784.296875, 187500.0, 0.010000000707805157, -0.014000000432133675, 1.0120000839233398, 192.0, 0.0, 0.0, 0.0, 0.0, 0.0, 0.0, 0.0, 0.0, 0.0, 1.598474832510016E9, 2020-08-26 15:47:12.510
125.0, -47.45275115966797, -28831.603515625, 10612.8759765625, -3842.354248046875, 98141.65625, 60568.64453125, -123787.6875, 187500.0, 0.010000000707805157, -0.014000000432133675, 1.0120000839233398, 192.0, 0.0, 0.0, 0.0, 0.0, 0.0, 0.0, 0.0, 0.0, 0.0, 1.598474832510018E9, 2020-08-26 15:47:12.510
126.0, -38.243831634521484, -47206.81640625, -8228.0341796875, -21719.79296875, 78296.34375, 42222.35546875, -144422.140625, 187500.0, 0.010000000707805157, -0.014000000432133675, 1.0120000839233398, 192.0, 0.0, 0.0, 0.0, 0.0, 0.0, 0.0, 0.0, 0.0, 0.0, 1.59847483251002E9, 2020-08-26 15:47:12.510
127.0, -35.226348876953125, -66215.859375, -29078.255859375, -41072.58203125, 55885.4609375, 21529.958984375, -167243.171875, 187500.0, 0.010000000707805157, -0.014000000432133675, 1.0120000839233398, 192.0, 0.0, 0.0, 0.0, 0.0, 0.0, 0.0, 0.0, 0.0, 0.0, 1.598474832510022E9, 2020-08-26 15:47:12.510
128.0, -44.56937789916992, -78684.9765625, -44144.11328125, -54483.89453125, 39042.3046875, 6170.17626953125, -183989.859375, 187500.0, 0.010000000707805157, -0.014000000432133675, 1.0120000839233398, 192.0, 0.0, 0.0, 0.0, 0.0, 0.0, 0.0, 0.0, 0.0, 0.0, 1.598474832510024E9, 2020-08-26 15:47:12.510
129.0, -14.439226150512695, -72283.28125, -38886.89453125, -48865.42578125, 43376.7109375, 10317.69921875, -178250.46875, 187500.0, 0.010000000707805157, -0.014000000432133675, 1.0120000839233398, 192.0, 0.0, 0.0, 0.0, 0.0, 0.0, 0.0, 0.0, 0.0, 0.0, 1.598474832510026E9, 2020-08-26 15:47:12.510
130.0, 6.169081211090088, -54047.3203125, -19849.48828125, -30920.59765625, 63425.890625, 28853.41796875, -157471.984375, 187500.0, 0.006000000052154064, -0.00800000037997961, 1.0160000324249268, 192.0, 0.0, 48.0, 255.0, 192.0, 31.0, 192.0, 0.0, 0.0, 0.0, 1.598474832510028E9, 2020-08-26 15:47:12.510
131.0, 13.522805213928223, -39823.296875, -3730.707275390625, -16265.8779296875, 80997.4921875, 44894.2578125, -139617.578125, 187500.0, 0.006000000052154064, -0.00800000037997961, 1.0160000324249268, 192.0, 0.0, 0.0, 0.0, 0.0, 0.0, 0.0, 0.0, 0.0, 0.0, 1.59847483251003E9, 2020-08-26 15:47:12.510
132.0, -14.975667953491211, -27293.625, 11208.2373046875, -2908.989990234375, 97681.7890625, 60139.78125, -123093.78125, 187500.0, 0.006000000052154064, -0.00800000037997961, 1.0160000324249268, 192.0, 0.0, 0.0, 0.0, 0.0, 0.0, 0.0, 0.0, 0.0, 0.0, 1.598474832510032E9, 2020-08-26 15:47:12.510
133.0, -50.31377410888672, -29216.724609375, 10303.0810546875, -4184.82763671875, 97969.125, 60364.37109375, -124048.828125, 187500.0, 0.006000000052154064, -0.00800000037997961, 1.0160000324249268, 192.0, 0.0, 0.0, 0.0, 0.0, 0.0, 0.0, 0.0, 0.0, 0.0, 1.598474832510035E9, 2020-08-26 15:47:12.510
134.0, -43.228271484375, -46687.96484375, -7601.73876953125, -21147.0078125, 79052.7734375, 42925.00390625, -143754.796875, 187500.0, 0.006000000052154064, -0.00800000037997961, 1.0160000324249268, 192.0, 0.0, 0.0, 0.0, 0.0, 0.0, 0.0, 0.0, 0.0, 0.0, 1.598474832510037E9, 2020-08-26 15:47:12.510
135.0, -31.5830135345459, -65348.09375, -28025.017578125, -40109.4453125, 57068.13671875, 22639.8125, -166158.265625, 187500.0, 0.006000000052154064, -0.00800000037997961, 1.0160000324249268, 192.0, 0.0, 0.0, 0.0, 0.0, 0.0, 0.0, 0.0, 0.0, 0.0, 1.598474832510039E9, 2020-08-26 15:47:12.510
136.0, -39.98727035522461, -79089.1640625, -44385.33203125, -54793.0859375, 38925.2265625, 6015.47998046875, -184197.921875, 187500.0, 0.006000000052154064, -0.00800000037997961, 1.0160000324249268, 192.0, 0.0, 0.0, 0.0, 0.0, 0.0, 0.0, 0.0, 0.0, 0.0, 1.598474832570367E9, 2020-08-26 15:47:12.570
137.0, -16.026199340820312, -72809.3046875, -39304.35546875, -49326.3203125, 43074.6953125, 9994.0009765625, -178611.90625, 187500.0, 0.006000000052154064, -0.00800000037997961, 1.0160000324249268, 192.0, 0.0, 0.0, 0.0, 0.0, 0.0, 0.0, 0.0, 0.0, 0.0, 1.598474832570373E9, 2020-08-26 15:47:12.570
138.0, 1.1846424341201782, -53741.66015625, -19427.375, -30553.068359375, 63960.02734375, 29349.380859375, -156985.03125, 187500.0, 0.006000000052154064, -0.00800000037997961, 1.0160000324249268, 192.0, 0.0, 0.0, 0.0, 0.0, 0.0, 0.0, 0.0, 0.0, 0.0, 1.598474832570376E9, 2020-08-26 15:47:12.570
139.0, 14.618040084838867, -38879.671875, -2600.938232421875, -15228.5556640625, 82244.984375, 46078.09765625, -138427.8125, 187500.0, 0.006000000052154064, -0.00800000037997961, 1.0160000324249268, 192.0, 0.0, 0.0, 0.0, 0.0, 0.0, 0.0, 0.0, 0.0, 0.0, 1.598474832570379E9, 2020-08-26 15:47:12.570
140.0, -8.91834545135498, -27518.595703125, 11158.2138671875, -3035.2998046875, 97748.9609375, 60171.18359375, -123082.9140625, 187500.0, 0.00800000037997961, -0.014000000432133675, 1.0160000324249268, 192.0, 0.0, 64.0, 255.0, 144.0, 31.0, 192.0, 0.0, 0.0, 0.0, 1.598474832570382E9, 2020-08-26 15:47:12.570
141.0, -50.33612823486328, -29789.689453125, 9846.748046875, -4688.99365234375, 97622.46875, 59998.4296875, -124443.8671875, 187500.0, 0.00800000037997961, -0.014000000432133675, 1.0160000324249268, 192.0, 0.0, 0.0, 0.0, 0.0, 0.0, 0.0, 0.0, 0.0, 0.0, 1.598474832570385E9, 2020-08-26 15:47:12.570
142.0, -48.57033920288086, -46510.40234375, -7312.06005859375, -20909.4296875, 79448.734375, 43286.07421875, -143408.03125, 187500.0, 0.00800000037997961, -0.014000000432133675, 1.0160000324249268, 192.0, 0.0, 0.0, 0.0, 0.0, 0.0, 0.0, 0.0, 0.0, 0.0, 1.598474832570388E9, 2020-08-26 15:47:12.570
143.0, -33.32645034790039, -64350.984375, -26846.791015625, -39016.53125, 58360.53515625, 23870.65625, -164924.015625, 187500.0, 0.00800000037997961, -0.014000000432133675, 1.0160000324249268, 192.0, 0.0, 0.0, 0.0, 0.0, 0.0, 0.0, 0.0, 0.0, 0.0, 1.598474832570391E9, 2020-08-26 15:47:12.570
144.0, -32.946468353271484, -79127.1640625, -44234.4140625, -54721.3828125, 39196.6640625, 6247.4462890625, -183975.375, 187500.0, 0.00800000037997961, -0.014000000432133675, 1.0160000324249268, 192.0, 0.0, 0.0, 0.0, 0.0, 0.0, 0.0, 0.0, 0.0, 0.0, 1.598474832570394E9, 2020-08-26 15:47:12.570
145.0, -14.66274356842041, -73455.1171875, -39830.76171875, -49900.7578125, 42663.109375, 9567.10546875, -179053.984375, 187500.0, 0.00800000037997961, -0.014000000432133675, 1.0160000324249268, 192.0, 0.0, 0.0, 0.0, 0.0, 0.0, 0.0, 0.0, 0.0, 0.0, 1.598474832570397E9, 2020-08-26 15:47:12.570
146.0, -4.358590126037598, -53804.9375, -19395.30078125, -30562.298828125, 64101.625, 29464.359375, -156881.71875, 187500.0, 0.00800000037997961, -0.014000000432133675, 1.0160000324249268, 192.0, 0.0, 0.0, 0.0, 0.0, 0.0, 0.0, 0.0, 0.0, 0.0, 1.5984748325704E9, 2020-08-26 15:47:12.570
147.0, 10.7064847946167, -37947.3359375, -1504.808837890625, -14207.2373046875, 83448.0703125, 47224.13671875, -137276.40625, 187500.0, 0.00800000037997961, -0.014000000432133675, 1.0160000324249268, 192.0, 0.0, 0.0, 0.0, 0.0, 0.0, 0.0, 0.0, 0.0, 0.0, 1.598474832570403E9, 2020-08-26 15:47:12.570
148.0, -1.36345636844635, -27309.0703125, 11571.7880859375, -2703.197509765625, 98269.84375, 60646.046875, -122617.015625, 187500.0, 0.00800000037997961, -0.014000000432133675, 1.0160000324249268, 192.0, 0.0, 0.0, 0.0, 0.0, 0.0, 0.0, 0.0, 0.0, 0.0, 1.598474832570407E9, 2020-08-26 15:47:12.570
149.0, -48.99502182006836, -30392.470703125, 9377.830078125, -5205.36328125, 97260.1484375, 59617.17578125, -124858.765625, 187500.0, 0.00800000037997961, -0.014000000432133675, 1.0160000324249268, 192.0, 0.0, 0.0, 0.0, 0.0, 0.0, 0.0, 0.0, 0.0, 0.0, 1.598474832570411E9, 2020-08-26 15:47:12.570
150.0, -53.30891036987305, -46710.91796875, -7419.61669921875, -21056.013671875, 79442.390625, 43256.27734375, -143465.296875, 187500.0, 0.006000000052154064, -0.018000001087784767, 1.0180000066757202, 192.0, 0.0, 48.0, 255.0, 112.0, 31.0, 208.0, 0.0, 0.0, 0.0, 1.598474832570414E9, 2020-08-26 15:47:12.570
151.0, -38.26618576049805, -63549.16015625, -25902.810546875, -38146.53515625, 59405.75, 24861.375, -163935.90625, 187500.0, 0.006000000052154064, -0.018000001087784767, 1.0180000066757202, 192.0, 0.0, 0.0, 0.0, 0.0, 0.0, 0.0, 0.0, 0.0, 0.0, 1.598474832629796E9, 2020-08-26 15:47:12.629
152.0, -25.726856231689453, -78645.015625, -43557.73828125, -54137.734375, 39983.4453125, 6972.58154296875, -183250.078125, 187500.0, 0.006000000052154064, -0.018000001087784767, 1.0180000066757202, 192.0, 0.0, 0.0, 0.0, 0.0, 0.0, 0.0, 0.0, 0.0, 0.0, 1.598474832629802E9, 2020-08-26 15:47:12.629
153.0, -12.449921607971191, -74027.0078125, -40261.234375, -50387.66796875, 42341.9375, 9212.6962890625, -179390.78125, 187500.0, 0.006000000052154064, -0.018000001087784767, 1.0180000066757202, 192.0, 0.0, 0.0, 0.0, 0.0, 0.0, 0.0, 0.0, 0.0, 0.0, 1.598474832629804E9, 2020-08-26 15:47:12.629
154.0, -7.644296169281006, -54182.3046875, -19677.4921875, -30880.408203125, 63923.9296875, 29257.337890625, -157054.34375, 187500.0, 0.006000000052154064, -0.018000001087784767, 1.0180000066757202, 192.0, 0.0, 0.0, 0.0, 0.0, 0.0, 0.0, 0.0, 0.0, 0.0, 1.598474832629806E9, 2020-08-26 15:47:12.629
155.0, 4.962087154388428, -37332.7109375, -766.4189453125, -13528.7724609375, 84294.484375, 48014.09375, -136437.859375, 187500.0, 0.006000000052154064, -0.018000001087784767, 1.0180000066757202, 192.0, 0.0, 0.0, 0.0, 0.0, 0.0, 0.0, 0.0, 0.0, 0.0, 1.598474832629807E9, 2020-08-26 15:47:12.629
156.0, 4.313886642456055, -26633.064453125, 12434.029296875, -1929.447265625, 99247.9296875, 61552.45703125, -121662.6875, 187500.0, 0.006000000052154064, -0.018000001087784767, 1.0180000066757202, 192.0, 0.0, 0.0, 0.0, 0.0, 0.0, 0.0, 0.0, 0.0, 0.0, 1.598474832629809E9, 2020-08-26 15:47:12.629
157.0, -45.75402069091797, -30925.044921875, 8990.318359375, -5651.30322265625, 96979.453125, 59293.36328125, -125158.8359375, 187500.0, 0.006000000052154064, -0.018000001087784767, 1.0180000066757202, 192.0, 0.0, 0.0, 0.0, 0.0, 0.0, 0.0, 0.0, 0.0, 0.0, 1.59847483262981E9, 2020-08-26 15:47:12.629
158.0, -55.54408264160156, -47200.7578125, -7817.76806640625, -21488.1171875, 79141.2421875, 42919.21484375, -143784.359375, 187500.0, 0.006000000052154064, -0.018000001087784767, 1.0180000066757202, 192.0, 0.0, 0.0, 0.0, 0.0, 0.0, 0.0, 0.0, 0.0, 0.0, 1.598474832629812E9, 2020-08-26 15:47:12.629
159.0, -43.78706741333008, -63110.57421875, -25353.626953125, -37647.35546875, 60049.7265625, 25450.142578125, -163318.296875, 187500.0, 0.006000000052154064, -0.018000001087784767, 1.0180000066757202, 192.0, 0.0, 0.0, 0.0, 0.0, 0.0, 0.0, 0.0, 0.0, 0.0, 1.598474832629813E9, 2020-08-26 15:47:12.629
160.0, -22.95524024963379, -77784.6953125, -42513.640625, -53181.0546875, 41126.1796875, 8041.06201171875, -182151.015625, 187500.0, 0.006000000052154064, -0.018000001087784767, 1.0160000324249268, 192.0, 0.0, 48.0, 255.0, 112.0, 31.0, 192.0, 0.0, 0.0, 0.0, 1.598474832629815E9, 2020-08-26 15:47:12.629
161.0, -7.845461845397949, -74443.7578125, -40528.09375, -50716.9765625, 42178.3203125, 9004.3330078125, -179622.875, 187500.0, 0.006000000052154064, -0.018000001087784767, 1.0160000324249268, 192.0, 0.0, 0.0, 0.0, 0.0, 0.0, 0.0, 0.0, 0.0, 0.0, 1.598474832629817E9, 2020-08-26 15:47:12.629
162.0, -8.62777328491211, -54777.953125, -20189.8828125, -31427.53515625, 63511.33984375, 28810.033203125, -157531.625, 187500.0, 0.006000000052154064, -0.018000001087784767, 1.0160000324249268, 192.0, 0.0, 0.0, 0.0, 0.0, 0.0, 0.0, 0.0, 0.0, 0.0, 1.598474832629819E9, 2020-08-26 15:47:12.629
163.0, -0.2682209312915802, -37083.62109375, -434.9872741699219, -13240.14453125, 84724.640625, 48386.67578125, -136073.03125, 187500.0, 0.006000000052154064, -0.018000001087784767, 1.0160000324249268, 192.0, 0.0, 0.0, 0.0, 0.0, 0.0, 0.0, 0.0, 0.0, 0.0, 1.598474832629821E9, 2020-08-26 15:47:12.629
164.0, 4.738569736480713, -25727.4609375, 13488.5625, -955.671142578125, 100409.640625, 62628.98046875, -120572.6796875, 187500.0, 0.006000000052154064, -0.018000001087784767, 1.0160000324249268, 192.0, 0.0, 0.0, 0.0, 0.0, 0.0, 0.0, 0.0, 0.0, 0.0, 1.598474832629822E9, 2020-08-26 15:47:12.629
165.0, -40.07667541503906, -31205.4921875, 8839.8017578125, -5864.15869140625, 96944.71875, 59200.71484375, -125265.40625, 187500.0, 0.006000000052154064, -0.018000001087784767, 1.0160000324249268, 192.0, 0.0, 0.0, 0.0, 0.0, 0.0, 0.0, 0.0, 0.0, 0.0, 1.598474832629824E9, 2020-08-26 15:47:12.629
166.0, -55.9240608215332, -47835.078125, -8388.765625, -22090.18359375, 78683.03125, 42418.15625, -144310.171875, 187500.0, 0.006000000052154064, -0.018000001087784767, 1.0160000324249268, 192.0, 0.0, 0.0, 0.0, 0.0, 0.0, 0.0, 0.0, 0.0, 0.0, 1.598474832689523E9, 2020-08-26 15:47:12.689
167.0, -49.106781005859375, -63043.203125, -25236.705078125, -37559.22265625, 60276.73046875, 25617.177734375, -163155.5625, 187500.0, 0.006000000052154064, -0.018000001087784767, 1.0160000324249268, 192.0, 0.0, 0.0, 0.0, 0.0, 0.0, 0.0, 0.0, 0.0, 0.0, 1.598474832689534E9, 2020-08-26 15:47:12.689
168.0, -25.011600494384766, -76853.875, -41463.7578125, -52196.05859375, 42287.890625, 9114.4599609375, -181073.3125, 187500.0, 0.006000000052154064, -0.018000001087784767, 1.0160000324249268, 192.0, 0.0, 0.0, 0.0, 0.0, 0.0, 0.0, 0.0, 0.0, 0.0, 1.598474832689538E9, 2020-08-26 15:47:12.689
169.0, -0.8717179894447327, -74490.2734375, -40437.87890625, -50693.62109375, 42379.30859375, 9137.03515625, -179550.375, 187500.0, 0.006000000052154064, -0.018000001087784767, 1.0160000324249268, 192.0, 0.0, 0.0, 0.0, 0.0, 0.0, 0.0, 0.0, 0.0, 0.0, 1.59847483268954E9, 2020-08-26 15:47:12.689
170.0, -8.136034965515137, -55423.76171875, -20760.27734375, -32036.6640625, 63038.98046875, 28293.529296875, -158131.234375, 187500.0, 0.010000000707805157, -0.014000000432133675, 1.0140000581741333, 192.0, 0.0, 80.0, 255.0, 144.0, 31.0, 176.0, 0.0, 0.0, 0.0, 1.598474832689543E9, 2020-08-26 15:47:12.689
171.0, -5.163252830505371, -37193.390625, -487.8491516113281, -13327.7412109375, 84756.984375, 48373.53125, -136158.4375, 187500.0, 0.010000000707805157, -0.014000000432133675, 1.0140000581741333, 192.0, 0.0, 0.0, 0.0, 0.0, 0.0, 0.0, 0.0, 0.0, 0.0, 1.598474832689546E9, 2020-08-26 15:47:12.689
172.0, 0.7599592804908752, -24920.5625, 14410.34765625, -98.16886138916016, 101414.625, 63567.10546875, -119686.59375, 187500.0, 0.010000000707805157, -0.014000000432133675, 1.0140000581741333, 192.0, 0.0, 0.0, 0.0, 0.0, 0.0, 0.0, 0.0, 0.0, 0.0, 1.598474832689548E9, 2020-08-26 15:47:12.689
173.0, -32.521785736083984, -31043.689453125, 9151.787109375, -5623.7880859375, 97340.953125, 59538.51953125, -124986.078125, 187500.0, 0.010000000707805157, -0.014000000432133675, 1.0140000581741333, 192.0, 0.0, 0.0, 0.0, 0.0, 0.0, 0.0, 0.0, 0.0, 0.0, 1.59847483268955E9, 2020-08-26 15:47:12.689
174.0, -54.314735412597656, -48473.95703125, -8936.31640625, -22676.357421875, 78211.4140625, 41913.85546875, -144889.328125, 187500.0, 0.010000000707805157, -0.014000000432133675, 1.0140000581741333, 192.0, 0.0, 0.0, 0.0, 0.0, 0.0, 0.0, 0.0, 0.0, 0.0, 1.598474832689552E9, 2020-08-26 15:47:12.689
175.0, -53.53242492675781, -63329.53125, -25469.23046875, -37819.328125, 60113.16015625, 25422.29296875, -163417.125, 187500.0, 0.010000000707805157, -0.014000000432133675, 1.0140000581741333, 192.0, 0.0, 0.0, 0.0, 0.0, 0.0, 0.0, 0.0, 0.0, 0.0, 1.598474832689555E9, 2020-08-26 15:47:12.689
176.0, -30.308963775634766, -76136.1875, -40653.1484375, -51439.54296875, 43171.67578125, 9937.7197265625, -180315.890625, 187500.0, 0.010000000707805157, -0.014000000432133675, 1.0140000581741333, 192.0, 0.0, 0.0, 0.0, 0.0, 0.0, 0.0, 0.0, 0.0, 0.0, 1.598474832689557E9, 2020-08-26 15:47:12.689
177.0, 5.833805084228516, -74025.5546875, -39829.4453125, -50154.31640625, 43069.26171875, 9760.224609375, -179117.078125, 187500.0, 0.010000000707805157, -0.014000000432133675, 1.0140000581741333, 192.0, 0.0, 0.0, 0.0, 0.0, 0.0, 0.0, 0.0, 0.0, 0.0, 1.598474832689559E9, 2020-08-26 15:47:12.689
178.0, -5.476177215576172, -56043.35546875, -21295.310546875, -32602.3203125, 62588.81640625, 27806.57421875, -158875.1875, 187500.0, 0.010000000707805157, -0.014000000432133675, 1.0140000581741333, 192.0, 0.0, 0.0, 0.0, 0.0, 0.0, 0.0, 0.0, 0.0, 0.0, 1.598474832689562E9, 2020-08-26 15:47:12.689
179.0, -8.426607131958008, -37629.18359375, -898.7412719726562, -13744.0419921875, 84431.09375, 48010.83203125, -136766.71875, 187500.0, 0.010000000707805157, -0.014000000432133675, 1.0140000581741333, 192.0, 0.0, 0.0, 0.0, 0.0, 0.0, 0.0, 0.0, 0.0, 0.0, 1.598474832689565E9, 2020-08-26 15:47:12.689
180.0, -4.403293609619141, -24353.4765625, 15030.2734375, 495.64990234375, 102124.0234375, 64209.36328125, -119256.65625, 187500.0, 0.014000000432133675, -0.012000000104308128, 1.0120000839233398, 192.0, 0.0, 112.0, 255.0, 160.0, 31.0, 160.0, 0.0, 0.0, 0.0, 1.598474832689567E9, 2020-08-26 15:47:12.689
181.0, -27.000905990600586, -30345.888671875, 9971.26953125, -4862.755859375, 98255.203125, 60371.45703125, -124350.7109375, 187500.0, 0.014000000432133675, -0.012000000104308128, 1.0120000839233398, 192.0, 0.0, 0.0, 0.0, 0.0, 0.0, 0.0, 0.0, 0.0, 0.0, 1.598474832749779E9, 2020-08-26 15:47:12.749
182.0, -50.425533294677734, -49013.05859375, -9397.298828125, -23168.744140625, 77844.3515625, 41498.515625, -145522.1875, 187500.0, 0.014000000432133675, -0.012000000104308128, 1.0120000839233398, 192.0, 0.0, 0.0, 0.0, 0.0, 0.0, 0.0, 0.0, 0.0, 0.0, 1.598474832749785E9, 2020-08-26 15:47:12.749
183.0, -55.767601013183594, -63875.515625, -25996.419921875, -38352.84375, 59674.9765625, 24944.166015625, -164109.046875, 187500.0, 0.014000000432133675, -0.012000000104308128, 1.0120000839233398, 192.0, 0.0, 0.0, 0.0, 0.0, 0.0, 0.0, 0.0, 0.0, 0.0, 1.598474832749787E9, 2020-08-26 15:47:12.749
184.0, -35.71808624267578, -75746.0390625, -40225.71875, -51033.79296875, 43685.09765625, 10387.7490234375, -180057.015625, 187500.0, 0.014000000432133675, -0.012000000104308128, 1.0120000839233398, 192.0, 0.0, 0.0, 0.0, 0.0, 0.0, 0.0, 0.0, 0.0, 0.0, 1.598474832749789E9, 2020-08-26 15:47:12.749
185.0, 8.694828033447266, -73170.6875, -38864.51953125, -49247.9765625, 44126.54296875, 10735.20703125, -178319.3125, 187500.0, 0.014000000432133675, -0.012000000104308128, 1.0120000839233398, 192.0, 0.0, 0.0, 0.0, 0.0, 0.0, 0.0, 0.0, 0.0, 0.0, 1.598474832749791E9, 2020-08-26 15:47:12.749
186.0, -0.5140901207923889, -56462.31640625, -21626.787109375, -32972.82421875, 62346.9921875, 27517.142578125, -159357.46875, 187500.0, 0.014000000432133675, -0.012000000104308128, 1.0120000839233398, 192.0, 0.0, 0.0, 0.0, 0.0, 0.0, 0.0, 0.0, 0.0, 0.0, 1.598474832749794E9, 2020-08-26 15:47:12.749
187.0, -9.454787254333496, -38258.8984375, -1499.2879638671875, -14360.50390625, 83907.375, 47458.875, -137510.59375, 187500.0, 0.014000000432133675, -0.012000000104308128, 1.0120000839233398, 192.0, 0.0, 0.0, 0.0, 0.0, 0.0, 0.0, 0.0, 0.0, 0.0, 1.598474832749796E9, 2020-08-26 15:47:12.749
188.0, -10.438263893127441, -24160.8046875, 15256.2724609375, 696.0109252929688, 102419.1953125, 64459.25390625, -119171.6484375, 187500.0, 0.014000000432133675, -0.012000000104308128, 1.0120000839233398, 192.0, 0.0, 0.0, 0.0, 0.0, 0.0, 0.0, 0.0, 0.0, 0.0, 1.598474832749798E9, 2020-08-26 15:47:12.749
189.0, -27.470293045043945, -29495.96484375, 10920.078125, -3969.580322265625, 99281.6640625, 61330.14453125, -123531.875, 187500.0, 0.014000000432133675, -0.012000000104308128, 1.0120000839233398, 192.0, 0.0, 0.0, 0.0, 0.0, 0.0, 0.0, 0.0, 0.0, 0.0, 1.5984748327498E9, 2020-08-26 15:47:12.749
190.0, -44.54702377319336, -49375.3828125, -9681.478515625, -23486.49609375, 77642.421875, 41262.0546875, -145914.734375, 187500.0, 0.01600000075995922, -0.014000000432133675, 1.0140000581741333, 192.0, 0.0, 128.0, 255.0, 144.0, 31.0, 176.0, 0.0, 0.0, 0.0, 1.598474832749802E9, 2020-08-26 15:47:12.749
191.0, -55.678192138671875, -64581.296875, -26699.783203125, -39055.984375, 59046.734375, 24301.3515625, -164916.96875, 187500.0, 0.01600000075995922, -0.014000000432133675, 1.0140000581741333, 192.0, 0.0, 0.0, 0.0, 0.0, 0.0, 0.0, 0.0, 0.0, 0.0, 1.598474832749804E9, 2020-08-26 15:47:12.749
192.0, -40.92604446411133, -75738.9921875, -40235.59765625, -51041.97265625, 43746.05078125, 10424.25, -180167.21875, 187500.0, 0.01600000075995922, -0.014000000432133675, 1.0140000581741333, 192.0, 0.0, 0.0, 0.0, 0.0, 0.0, 0.0, 0.0, 0.0, 0.0, 1.598474832749806E9, 2020-08-26 15:47:12.749
193.0, 6.169081211090088, -72282.453125, -37928.02734375, -48344.00390625, 45137.26953125, 11688.28515625, -177482.140625, 187500.0, 0.01600000075995922, -0.014000000432133675, 1.0140000581741333, 192.0, 0.0, 0.0, 0.0, 0.0, 0.0, 0.0, 0.0, 0.0, 0.0, 1.598474832749808E9, 2020-08-26 15:47:12.749
194.0, 6.50435733795166, -56508.046875, -21612.705078125, -32989.09375, 62442.6796875, 27567.27734375, -159435.40625, 187500.0, 0.01600000075995922, -0.014000000432133675, 1.0140000581741333, 192.0, 0.0, 0.0, 0.0, 0.0, 0.0, 0.0, 0.0, 0.0, 0.0, 1.59847483274981E9, 2020-08-26 15:47:12.749
195.0, -8.381903648376465, -38957.1875, -2203.1220703125, -15064.248046875, 83281.234375, 46813.22265625, -138301.90625, 187500.0, 0.01600000075995922, -0.014000000432133675, 1.0140000581741333, 192.0, 0.0, 0.0, 0.0, 0.0, 0.0, 0.0, 0.0, 0.0, 0.0, 1.598474832749812E9, 2020-08-26 15:47:12.749
196.0, -15.10977840423584, -24347.955078125, 15036.107421875, 482.0376892089844, 102269.53125, 64291.28125, -119483.2578125, 187500.0, 0.01600000075995922, -0.014000000432133675, 1.0140000581741333, 192.0, 0.0, 0.0, 0.0, 0.0, 0.0, 0.0, 0.0, 0.0, 0.0, 1.598474832809996E9, 2020-08-26 15:47:12.809
197.0, -31.1583309173584, -28750.51171875, 11685.357421875, -3229.134033203125, 100121.640625, 62122.671875, -122853.921875, 187500.0, 0.01600000075995922, -0.014000000432133675, 1.0140000581741333, 192.0, 0.0, 0.0, 0.0, 0.0, 0.0, 0.0, 0.0, 0.0, 0.0, 1.598474832810004E9, 2020-08-26 15:47:12.810
198.0, -36.925079345703125, -49235.48046875, -9485.38671875, -23323.216796875, 77918.5390625, 41494.1328125, -145799.890625, 187500.0, 0.01600000075995922, -0.014000000432133675, 1.0140000581741333, 192.0, 0.0, 0.0, 0.0, 0.0, 0.0, 0.0, 0.0, 0.0, 0.0, 1.598474832810007E9, 2020-08-26 15:47:12.810
199.0, -54.2253303527832, -65297.7578125, -27420.470703125, -39772.37890625, 58398.87109375, 23638.712890625, -165717.28125, 187500.0, 0.01600000075995922, -0.014000000432133675, 1.0140000581741333, 192.0, 0.0, 0.0, 0.0, 0.0, 0.0, 0.0, 0.0, 0.0, 0.0, 1.598474832810009E9, 2020-08-26 15:47:12.810
200.0, -45.396392822265625, -76093.359375, -40633.83984375, -51421.953125, 43411.19921875, 10073.8857421875, -180647.328125, 187500.0, 0.01600000075995922, -0.014000000432133675, 1.0140000581741333, 192.0, 0.0, 0.0, 0.0, 0.0, 0.0, 0.0, 0.0, 0.0, 0.0, 1.598474832810012E9, 2020-08-26 15:47:12.810
201.0, 1.1622906923294067, -71636.8671875, -37285.12109375, -47711.3828125, 45842.66796875, 12354.970703125, -176942.03125, 187500.0, 0.010000000707805157, -0.01600000075995922, 1.0080000162124634, 192.0, 0.0, 80.0, 255.0, 128.0, 31.0, 128.0, 0.0, 0.0, 0.0, 1.598474832810015E9, 2020-08-26 15:47:12.810
202.0, 13.723970413208008, -56060.140625, -21110.439453125, -32515.193359375, 63011.5546875, 28097.794921875, -159033.65625, 187500.0, 0.010000000707805157, -0.01600000075995922, 1.0080000162124634, 192.0, 0.0, 0.0, 0.0, 0.0, 0.0, 0.0, 0.0, 0.0, 0.0, 1.598474832810018E9, 2020-08-26 15:47:12.810
203.0, -5.587935924530029, -39609.8828125, -2855.45751953125, -15703.642578125, 82694.2734375, 46217.99609375, -139034.640625, 187500.0, 0.010000000707805157, -0.01600000075995922, 1.0080000162124634, 192.0, 0.0, 0.0, 0.0, 0.0, 0.0, 0.0, 0.0, 0.0, 0.0, 1.59847483281002E9, 2020-08-26 15:47:12.810
204.0, -18.082561492919922, -24806.658203125, 14527.91796875, 8.024275779724121, 101821.1796875, 63835.7734375, -120066.328125, 187500.0, 0.010000000707805157, -0.01600000075995922, 1.0080000162124634, 192.0, 0.0, 0.0, 0.0, 0.0, 0.0, 0.0, 0.0, 0.0, 0.0, 1.598474832810023E9, 2020-08-26 15:47:12.810
205.0, -36.56745147705078, -28240.84765625, 12180.7392578125, -2724.677490234375, 100675.15625, 62642.39453125, -122439.8125, 187500.0, 0.010000000707805157, -0.01600000075995922, 1.0080000162124634, 192.0, 0.0, 0.0, 0.0, 0.0, 0.0, 0.0, 0.0, 0.0, 0.0, 1.598474832810026E9, 2020-08-26 15:47:12.810
206.0, -32.320621490478516, -48558.58203125, -8754.4853515625, -22615.6953125, 78715.5546875, 42243.54296875, -145149.390625, 187500.0, 0.010000000707805157, -0.01600000075995922, 1.0080000162124634, 192.0, 0.0, 0.0, 0.0, 0.0, 0.0, 0.0, 0.0, 0.0, 0.0, 1.598474832810029E9, 2020-08-26 15:47:12.810
207.0, -50.380828857421875, -65876.7109375, -27986.70703125, -40336.08984375, 57900.359375, 23122.587890625, -166352.8125, 187500.0, 0.010000000707805157, -0.01600000075995922, 1.0080000162124634, 192.0, 0.0, 0.0, 0.0, 0.0, 0.0, 0.0, 0.0, 0.0, 0.0, 1.598474832810032E9, 2020-08-26 15:47:12.810
208.0, -47.63156509399414, -76703.7421875, -41288.7890625, -52051.19921875, 42817.73828125, 9473.4736328125, -181369.21875, 187500.0, 0.010000000707805157, -0.01600000075995922, 1.0080000162124634, 192.0, 0.0, 0.0, 0.0, 0.0, 0.0, 0.0, 0.0, 0.0, 0.0, 1.598474832810034E9, 2020-08-26 15:47:12.810
209.0, -4.515052318572998, -71314.0625, -36990.32421875, -47407.2421875, 46195.4453125, 12680.1884765625, -176717.21875, 187500.0, 0.010000000707805157, -0.01600000075995922, 1.0080000162124634, 192.0, 0.0, 0.0, 0.0, 0.0, 0.0, 0.0, 0.0, 0.0, 0.0, 1.598474832810038E9, 2020-08-26 15:47:12.810
210.0, 15.44505500793457, -55240.58984375, -20238.69921875, -31675.19140625, 63941.3203125, 28976.419921875, -158234.3125, 187500.0, 0.010000000707805157, -0.01600000075995922, 1.0080000162124634, 192.0, 0.0, 0.0, 0.0, 0.0, 0.0, 0.0, 0.0, 0.0, 0.0, 1.598474832810041E9, 2020-08-26 15:47:12.810
211.0, -0.6929040551185608, -40060.8046875, -3275.64794921875, -16139.568359375, 82330.6328125, 45830.6640625, -139524.078125, 187500.0, 0.014000000432133675, -0.018000001087784767, 0.9960000514984131, 192.0, 0.0, 112.0, 255.0, 112.0, 31.0, 32.0, 0.0, 0.0, 0.0, 1.598474832870327E9, 2020-08-26 15:47:12.870
212.0, -18.97663116455078, -25459.6875, 13844.1787109375, -664.271484375, 101186.9453125, 63191.08203125, -120823.9609375, 187500.0, 0.014000000432133675, -0.018000001087784767, 0.9960000514984131, 192.0, 0.0, 0.0, 0.0, 0.0, 0.0, 0.0, 0.0, 0.0, 0.0, 1.598474832870333E9, 2020-08-26 15:47:12.870
213.0, -41.9542236328125, -28010.84765625, 12387.3583984375, -2512.716064453125, 100926.640625, 62866.42578125, -122313.703125, 187500.0, 0.014000000432133675, -0.018000001087784767, 0.9960000514984131, 192.0, 0.0, 0.0, 0.0, 0.0, 0.0, 0.0, 0.0, 0.0, 0.0, 1.598474832870336E9, 2020-08-26 15:47:12.870
214.0, -32.54413986206055, -47615.7421875, -7753.7529296875, -21645.80859375, 79762.796875, 43233.50390625, -144227.671875, 187500.0, 0.014000000432133675, -0.018000001087784767, 0.9960000514984131, 192.0, 0.0, 0.0, 0.0, 0.0, 0.0, 0.0, 0.0, 0.0, 0.0, 1.598474832870339E9, 2020-08-26 15:47:12.870
215.0, -43.51884460449219, -66103.4453125, -28152.78125, -40522.125, 57783.59375, 22966.05859375, -166583.28125, 187500.0, 0.014000000432133675, -0.018000001087784767, 0.9960000514984131, 192.0, 0.0, 0.0, 0.0, 0.0, 0.0, 0.0, 0.0, 0.0, 0.0, 1.598474832870342E9, 2020-08-26 15:47:12.870
216.0, -46.625736236572266, -77401.3828125, -41988.46484375, -52741.75390625, 42161.01953125, 8794.5390625, -182115.765625, 187500.0, 0.014000000432133675, -0.018000001087784767, 0.9960000514984131, 192.0, 0.0, 0.0, 0.0, 0.0, 0.0, 0.0, 0.0, 0.0, 0.0, 1.598474832870345E9, 2020-08-26 15:47:12.870
217.0, -9.588897705078125, -71321.8671875, -37010.84375, -47418.62109375, 46211.984375, 12659.0439453125, -176734.328125, 187500.0, 0.014000000432133675, -0.018000001087784767, 0.9960000514984131, 192.0, 0.0, 0.0, 0.0, 0.0, 0.0, 0.0, 0.0, 0.0, 0.0, 1.598474832870347E9, 2020-08-26 15:47:12.870
218.0, 12.941659927368164, -54334.33984375, -19278.19921875, -30738.609375, 64947.4375, 29911.013671875, -157261.125, 187500.0, 0.014000000432133675, -0.018000001087784767, 0.9960000514984131, 192.0, 0.0, 0.0, 0.0, 0.0, 0.0, 0.0, 0.0, 0.0, 0.0, 1.59847483287035E9, 2020-08-26 15:47:12.870
219.0, 6.459653854370117, -40058.7734375, -3193.28173828125, -16079.46484375, 82466.828125, 45906.32421875, -139425.796875, 187500.0, 0.014000000432133675, -0.018000001087784767, 0.9960000514984131, 192.0, 0.0, 0.0, 0.0, 0.0, 0.0, 0.0, 0.0, 0.0, 0.0, 1.598474832870352E9, 2020-08-26 15:47:12.870
220.0, -17.948450088500977, -26134.1953125, 13188.4228515625, -1308.8287353515625, 100577.390625, 62544.76171875, -121460.8984375, 187500.0, 0.014000000432133675, -0.018000001087784767, 0.9960000514984131, 192.0, 0.0, 0.0, 0.0, 0.0, 0.0, 0.0, 0.0, 0.0, 0.0, 1.598474832870355E9, 2020-08-26 15:47:12.870
221.0, -46.871604919433594, -28196.255859375, 12188.40625, -2695.2626953125, 100766.9609375, 62666.7578125, -122494.171875, 187500.0, 0.012000000104308128, -0.018000001087784767, 1.00600004196167, 192.0, 0.0, 96.0, 255.0, 112.0, 31.0, 112.0, 0.0, 0.0, 0.0, 1.598474832870357E9, 2020-08-26 15:47:12.870
222.0, -37.193302154541016, -46802.8515625, -6901.61474609375, -20810.92578125, 80659.3046875, 44064.44921875, -143361.3125, 187500.0, 0.012000000104308128, -0.018000001087784767, 1.00600004196167, 192.0, 0.0, 0.0, 0.0, 0.0, 0.0, 0.0, 0.0, 0.0, 0.0, 1.59847483287036E9, 2020-08-26 15:47:12.870
223.0, -36.56745147705078, -65836.65625, -27802.91015625, -40201.51171875, 58185.41015625, 23310.8125, -166215.40625, 187500.0, 0.012000000104308128, -0.018000001087784767, 1.00600004196167, 192.0, 0.0, 0.0, 0.0, 0.0, 0.0, 0.0, 0.0, 0.0, 0.0, 1.598474832870364E9, 2020-08-26 15:47:12.870
224.0, -45.351688385009766, -78063.109375, -42630.96484375, -53371.6484375, 41573.23828125, 8179.24072265625, -182719.15625, 187500.0, 0.012000000104308128, -0.018000001087784767, 1.00600004196167, 192.0, 0.0, 0.0, 0.0, 0.0, 0.0, 0.0, 0.0, 0.0, 0.0, 1.598474832870367E9, 2020-08-26 15:47:12.870
225.0, -14.059247016906738, -71666.890625, -37385.21484375, -47758.76953125, 45894.6328125, 12314.55859375, -177022.03125, 187500.0, 0.012000000104308128, -0.018000001087784767, 1.00600004196167, 192.0, 0.0, 0.0, 0.0, 0.0, 0.0, 0.0, 0.0, 0.0, 0.0, 1.598474832870369E9, 2020-08-26 15:47:12.870
226.0, 7.286668300628662, -53663.09375, -18598.013671875, -30050.82421875, 65688.9140625, 30601.705078125, -156483.484375, 187500.0, 0.012000000104308128, -0.018000001087784767, 1.00600004196167, 192.0, 0.0, 0.0, 0.0, 0.0, 0.0, 0.0, 0.0, 0.0, 0.0, 1.598474832929865E9, 2020-08-26 15:47:12.929
227.0, 12.69579029083252, -39526.84765625, -2595.171630859375, -15498.69921875, 83134.6953125, 46521.1328125, -138727.171875, 187500.0, 0.012000000104308128, -0.018000001087784767, 1.00600004196167, 192.0, 0.0, 0.0, 0.0, 0.0, 0.0, 0.0, 0.0, 0.0, 0.0, 1.598474832929873E9, 2020-08-26 15:47:12.929
228.0, -15.512109756469727, -26717.419921875, 12618.0732421875, -1865.4989013671875, 100080.359375, 62021.484375, -121921.4765625, 187500.0, 0.012000000104308128, -0.018000001087784767, 1.00600004196167, 192.0, 0.0, 0.0, 0.0, 0.0, 0.0, 0.0, 0.0, 0.0, 0.0, 1.598474832929876E9, 2020-08-26 15:47:12.929
229.0, -49.68792724609375, -28642.240234375, 11707.9775390625, -3143.12451171875, 100353.1796875, 62228.05859375, -122867.9375, 187500.0, 0.012000000104308128, -0.018000001087784767, 1.00600004196167, 192.0, 0.0, 0.0, 0.0, 0.0, 0.0, 0.0, 0.0, 0.0, 0.0, 1.598474832929878E9, 2020-08-26 15:47:12.929
230.0, -42.3565559387207, -46282.078125, -6383.2333984375, -20283.0234375, 81240.515625, 44597.8515625, -142743.125, 187500.0, 0.012000000104308128, -0.018000001087784767, 1.00600004196167, 192.0, 0.0, 0.0, 0.0, 0.0, 0.0, 0.0, 0.0, 0.0, 0.0, 1.598474832929881E9, 2020-08-26 15:47:12.929
231.0, -31.895938873291016, -65085.015625, -26981.59375, -39400.8046875, 59076.0390625, 24140.486328125, -165300.890625, 187500.0, 0.012000000104308128, -0.01600000075995922, 1.0099999904632568, 192.0, 0.0, 96.0, 255.0, 128.0, 31.0, 144.0, 0.0, 0.0, 0.0, 1.598474832929883E9, 2020-08-26 15:47:12.929
232.0, -41.417781829833984, -78582.921875, -43115.6640625, -53854.0, 41153.65234375, 7732.384765625, -183109.890625, 187500.0, 0.012000000104308128, -0.01600000075995922, 1.0099999904632568, 192.0, 0.0, 0.0, 0.0, 0.0, 0.0, 0.0, 0.0, 0.0, 0.0, 1.598474832929886E9, 2020-08-26 15:47:12.929
233.0, -15.914441108703613, -72258.1171875, -37996.35546875, -48348.54296875, 45336.5546875, 11742.3095703125, -177545.46875, 187500.0, 0.012000000104308128, -0.01600000075995922, 1.0099999904632568, 192.0, 0.0, 0.0, 0.0, 0.0, 0.0, 0.0, 0.0, 0.0, 0.0, 1.598474832929888E9, 2020-08-26 15:47:12.929
234.0, 2.1457674503326416, -53338.63671875, -18277.37890625, -29729.0703125, 66056.734375, 30927.90625, -156085.9375, 187500.0, 0.012000000104308128, -0.01600000075995922, 1.0099999904632568, 192.0, 0.0, 0.0, 0.0, 0.0, 0.0, 0.0, 0.0, 0.0, 0.0, 1.59847483292989E9, 2020-08-26 15:47:12.929
235.0, 14.729799270629883, -38643.5703125, -1640.036865234375, -14583.1044921875, 84140.3203125, 47453.15234375, -137705.34375, 187500.0, 0.012000000104308128, -0.01600000075995922, 1.0099999904632568, 192.0, 0.0, 0.0, 0.0, 0.0, 0.0, 0.0, 0.0, 0.0, 0.0, 1.598474832929892E9, 2020-08-26 15:47:12.929
236.0, -10.393560409545898, -27060.71875, 12331.3896484375, -2176.92578125, 99840.7265625, 61738.48828125, -122140.296875, 187500.0, 0.012000000104308128, -0.01600000075995922, 1.0099999904632568, 192.0, 0.0, 0.0, 0.0, 0.0, 0.0, 0.0, 0.0, 0.0, 0.0, 1.598474832929894E9, 2020-08-26 15:47:12.929
237.0, -50.44788360595703, -29243.76953125, 11110.671875, -3744.565185546875, 99790.3671875, 61641.125, -123400.3125, 187500.0, 0.012000000104308128, -0.01600000075995922, 1.0099999904632568, 192.0, 0.0, 0.0, 0.0, 0.0, 0.0, 0.0, 0.0, 0.0, 0.0, 1.598474832929896E9, 2020-08-26 15:47:12.929
238.0, -47.743324279785156, -46091.46484375, -6187.16357421875, -20097.66015625, 81468.890625, 44785.20703125, -142488.140625, 187500.0, 0.012000000104308128, -0.01600000075995922, 1.0099999904632568, 192.0, 0.0, 0.0, 0.0, 0.0, 0.0, 0.0, 0.0, 0.0, 0.0, 1.598474832929899E9, 2020-08-26 15:47:12.929
239.0, -32.49943542480469, -64127.7578125, -25947.40234375, -38416.56640625, 60147.87109375, 25144.52734375, -164209.125, 187500.0, 0.012000000104308128, -0.01600000075995922, 1.0099999904632568, 192.0, 0.0, 0.0, 0.0, 0.0, 0.0, 0.0, 0.0, 0.0, 0.0, 1.598474832929901E9, 2020-08-26 15:47:12.929
240.0, -34.62285232543945, -78745.90625, -43200.35546875, -53976.01953125, 41112.703125, 7646.62109375, -183117.046875, 187500.0, 0.012000000104308128, -0.01600000075995922, 1.0099999904632568, 192.0, 0.0, 0.0, 0.0, 0.0, 0.0, 0.0, 0.0, 0.0, 0.0, 1.598474832929903E9, 2020-08-26 15:47:12.929
241.0, -14.975667953491211, -72918.2734375, -38644.48828125, -48995.19921875, 44731.046875, 11112.125, -178075.046875, 187500.0, 0.00800000037997961, -0.01600000075995922, 1.00600004196167, 192.0, 0.0, 64.0, 255.0, 128.0, 31.0, 112.0, 0.0, 0.0, 0.0, 1.598474832989536E9, 2020-08-26 15:47:12.989
242.0, -3.1068923473358154, -53360.62890625, -18306.390625, -29745.65625, 66070.4375, 30909.734375, -155993.4375, 187500.0, 0.00800000037997961, -0.01600000075995922, 1.00600004196167, 192.0, 0.0, 0.0, 0.0, 0.0, 0.0, 0.0, 0.0, 0.0, 0.0, 1.598474832989542E9, 2020-08-26 15:47:12.989
243.0, 11.645258903503418, -37741.6796875, -677.3695678710938, -13639.615234375, 85152.7421875, 48407.9765625, -136630.0625, 187500.0, 0.00800000037997961, -0.01600000075995922, 1.00600004196167, 192.0, 0.0, 0.0, 0.0, 0.0, 0.0, 0.0, 0.0, 0.0, 0.0, 1.598474832989544E9, 2020-08-26 15:47:12.989
244.0, -3.3304097652435303, -27010.025390625, 12471.5126953125, -2058.416748046875, 100035.03125, 61891.0859375, -121893.421875, 187500.0, 0.00800000037997961, -0.01600000075995922, 1.00600004196167, 192.0, 0.0, 0.0, 0.0, 0.0, 0.0, 0.0, 0.0, 0.0, 0.0, 1.598474832989546E9, 2020-08-26 15:47:12.989
245.0, -49.3526496887207, -29884.83984375, 10494.2333984375, -4348.62109375, 99225.9609375, 61057.9453125, -123913.53125, 187500.0, 0.00800000037997961, -0.01600000075995922, 1.00600004196167, 192.0, 0.0, 0.0, 0.0, 0.0, 0.0, 0.0, 0.0, 0.0, 0.0, 1.598474832989547E9, 2020-08-26 15:47:12.989
246.0, -52.32543182373047, -46258.3203125, -6354.66796875, -20250.92578125, 81348.03125, 44636.8359375, -142564.0625, 187500.0, 0.00800000037997961, -0.01600000075995922, 1.00600004196167, 192.0, 0.0, 0.0, 0.0, 0.0, 0.0, 0.0, 0.0, 0.0, 0.0, 1.598474832989549E9, 2020-08-26 15:47:12.989
247.0, -37.12624740600586, -63337.15234375, -25101.56640625, -37592.21484375, 61040.19921875, 25982.025390625, -163286.1875, 187500.0, 0.00800000037997961, -0.01600000075995922, 1.00600004196167, 192.0, 0.0, 0.0, 0.0, 0.0, 0.0, 0.0, 0.0, 0.0, 0.0, 1.598474832989551E9, 2020-08-26 15:47:12.989
248.0, -27.1126651763916, -78432.8515625, -42788.27734375, -53600.75390625, 41576.5, 8058.9658203125, -182623.265625, 187500.0, 0.00800000037997961, -0.01600000075995922, 1.00600004196167, 192.0, 0.0, 0.0, 0.0, 0.0, 0.0, 0.0, 0.0, 0.0, 0.0, 1.598474832989553E9, 2020-08-26 15:47:12.989
249.0, -13.276935577392578, -73546.5546875, -39230.37109375, -49589.51171875, 44188.19140625, 10547.5419921875, -178520.6875, 187500.0, 0.00800000037997961, -0.01600000075995922, 1.00600004196167, 192.0, 0.0, 0.0, 0.0, 0.0, 0.0, 0.0, 0.0, 0.0, 0.0, 1.598474832989555E9, 2020-08-26 15:47:12.989
250.0, -7.174909591674805, -53693.55859375, -18640.28125, -30080.171875, 65766.671875, 30587.9140625, -156177.890625, 187500.0, 0.00800000037997961, -0.01600000075995922, 1.00600004196167, 192.0, 0.0, 0.0, 0.0, 0.0, 0.0, 0.0, 0.0, 0.0, 0.0, 1.598474832989556E9, 2020-08-26 15:47:12.989
251.0, 6.236136436462402, -37084.046875, 20.54125213623047, -12974.8076171875, 85876.671875, 49090.73046875, -135801.390625, 187500.0, 0.006000000052154064, -0.01600000075995922, 1.00600004196167, 192.0, 0.0, 48.0, 255.0, 128.0, 31.0, 112.0, 0.0, 0.0, 0.0, 1.598474832989558E9, 2020-08-26 15:47:12.989
252.0, 3.2857062816619873, -26463.2578125, 13122.5517578125, -1467.2578125, 100720.0390625, 62524.3984375, -121115.6953125, 187500.0, 0.006000000052154064, -0.01600000075995922, 1.00600004196167, 192.0, 0.0, 0.0, 0.0, 0.0, 0.0, 0.0, 0.0, 0.0, 0.0, 1.59847483298956E9, 2020-08-26 15:47:12.989
253.0, -46.446922302246094, -30493.12109375, 9936.8251953125, -4933.20849609375, 98700.921875, 60512.29296875, -124344.515625, 187500.0, 0.006000000052154064, -0.01600000075995922, 1.00600004196167, 192.0, 0.0, 0.0, 0.0, 0.0, 0.0, 0.0, 0.0, 0.0, 0.0, 1.598474832989562E9, 2020-08-26 15:47:12.989
254.0, -55.56643295288086, -46758.41796875, -6863.6171875, -20761.41796875, 80865.546875, 44142.546875, -142949.4375, 187500.0, 0.006000000052154064, -0.01600000075995922, 1.00600004196167, 192.0, 0.0, 0.0, 0.0, 0.0, 0.0, 0.0, 0.0, 0.0, 0.0, 1.598474832989564E9, 2020-08-26 15:47:12.989
255.0, -42.7812385559082, -62839.71484375, -24588.974609375, -37099.78125, 61579.45703125, 26483.306640625, -162655.765625, 187500.0, 0.006000000052154064, -0.01600000075995922, 1.00600004196167, 192.0, 0.0, 0.0, 0.0, 0.0, 0.0, 0.0, 0.0, 0.0, 0.0, 1.598474832989566E9, 2020-08-26 15:47:12.989
0.0, -22.843481063842773, -77644.8359375, -41908.40234375, -52777.80859375, 42487.0, 8913.8525390625, -181644.15625, 187500.0, 0.006000000052154064, -0.01600000075995922, 1.00600004196167, 192.0, 0.0, 0.0, 0.0, 0.0, 0.0, 0.0, 0.0, 0.0, 0.0, 1.598474833049772E9, 2020-08-26 15:47:13.049
1.0, -8.985401153564453, -74038.3203125, -39663.2578125, -50054.80859375, 43784.78515625, 10121.3837890625, -178883.578125, 187500.0, 0.006000000052154064, -0.01600000075995922, 1.00600004196167, 192.0, 0.0, 0.0, 0.0, 0.0, 0.0, 0.0, 0.0, 0.0, 0.0, 1.598474833049778E9, 2020-08-26 15:47:13.049
2.0, -8.694828033447266, -54288.62890625, -19234.591796875, -30682.55078125, 65196.66015625, 30005.986328125, -156704.5625, 187500.0, 0.006000000052154064, -0.01600000075995922, 1.00600004196167, 192.0, 0.0, 0.0, 0.0, 0.0, 0.0, 0.0, 0.0, 0.0, 0.0, 1.598474833049779E9, 2020-08-26 15:47:13.049
3.0, 0.9387732148170471, -36774.296875, 340.4841003417969, -12675.427734375, 86221.984375, 49401.1328125, -135416.90625, 187500.0, 0.006000000052154064, -0.01600000075995922, 1.00600004196167, 192.0, 0.0, 0.0, 0.0, 0.0, 0.0, 0.0, 0.0, 0.0, 0.0, 1.598474833049781E9, 2020-08-26 15:47:13.049
4.0, 5.006790637969971, -25609.533203125, 14057.9501953125, -589.5272216796875, 101687.265625, 63433.734375, -120121.6640625, 187500.0, 0.006000000052154064, -0.01600000075995922, 1.00600004196167, 192.0, 0.0, 0.0, 0.0, 0.0, 0.0, 0.0, 0.0, 0.0, 0.0, 1.598474833049783E9, 2020-08-26 15:47:13.049
5.0, -41.149559020996094, -30872.921875, 9618.6484375, -5286.50048828125, 98420.3359375, 60202.03125, -124601.828125, 187500.0, 0.010000000707805157, -0.01600000075995922, 1.0140000581741333, 192.0, 0.0, 80.0, 255.0, 128.0, 31.0, 176.0, 0.0, 0.0, 0.0, 1.598474833049785E9, 2020-08-26 15:47:13.049
6.0, -55.78995132446289, -47402.73046875, -7509.4931640625, -21412.6796875, 80251.4296875, 43513.546875, -143536.640625, 187500.0, 0.010000000707805157, -0.01600000075995922, 1.0140000581741333, 192.0, 0.0, 0.0, 0.0, 0.0, 0.0, 0.0, 0.0, 0.0, 0.0, 1.598474833049787E9, 2020-08-26 15:47:13.049
7.0, -48.36917495727539, -62729.7421875, -24486.71484375, -37007.4921875, 61710.5703125, 26584.359375, -162499.234375, 187500.0, 0.010000000707805157, -0.01600000075995922, 1.0140000581741333, 192.0, 0.0, 0.0, 0.0, 0.0, 0.0, 0.0, 0.0, 0.0, 0.0, 1.598474833049788E9, 2020-08-26 15:47:13.049
8.0, -24.452808380126953, -76726.09375, -40928.74609375, -51841.62890625, 43501.1875, 9870.91015625, -180623.140625, 187500.0, 0.010000000707805157, -0.01600000075995922, 1.0140000581741333, 192.0, 0.0, 0.0, 0.0, 0.0, 0.0, 0.0, 0.0, 0.0, 0.0, 1.59847483304979E9, 2020-08-26 15:47:13.049
9.0, -2.4586918354034424, -74202.9609375, -39762.546875, -50188.26953125, 43722.53515625, 10028.6015625, -178975.15625, 187500.0, 0.010000000707805157, -0.01600000075995922, 1.0140000581741333, 192.0, 0.0, 0.0, 0.0, 0.0, 0.0, 0.0, 0.0, 0.0, 0.0, 1.598474833049792E9, 2020-08-26 15:47:13.049
10.0, -8.068979263305664, -54973.7109375, -19917.19140625, -31365.1953125, 64545.59765625, 29350.208984375, -157388.421875, 187500.0, 0.010000000707805157, -0.01600000075995922, 1.0140000581741333, 192.0, 0.0, 0.0, 0.0, 0.0, 0.0, 0.0, 0.0, 0.0, 0.0, 1.598474833049794E9, 2020-08-26 15:47:13.049
11.0, -4.358590126037598, -36842.109375, 254.921630859375, -12756.8779296875, 86161.90625, 49332.62109375, -135505.640625, 187500.0, 0.010000000707805157, -0.01600000075995922, 1.0140000581741333, 192.0, 0.0, 0.0, 0.0, 0.0, 0.0, 0.0, 0.0, 0.0, 0.0, 1.598474833049796E9, 2020-08-26 15:47:13.049
12.0, 1.7657877206802368, -24779.322265625, 14931.7919921875, 257.223876953125, 102591.9765625, 64305.51953125, -119246.4609375, 187500.0, 0.010000000707805157, -0.01600000075995922, 1.0140000581741333, 192.0, 0.0, 0.0, 0.0, 0.0, 0.0, 0.0, 0.0, 0.0, 0.0, 1.598474833049797E9, 2020-08-26 15:47:13.049
13.0, -33.99700164794922, -30838.6328125, 9720.974609375, -5215.3544921875, 98557.0859375, 60322.796875, -124492.3515625, 187500.0, 0.010000000707805157, -0.01600000075995922, 1.0140000581741333, 192.0, 0.0, 0.0, 0.0, 0.0, 0.0, 0.0, 0.0, 0.0, 0.0, 1.598474833049799E9, 2020-08-26 15:47:13.049
14.0, -54.2476806640625, -48065.5703125, -8165.02490234375, -22066.625, 79625.3359375, 42897.109375, -144183.875, 187500.0, 0.010000000707805157, -0.01600000075995922, 1.0140000581741333, 192.0, 0.0, 0.0, 0.0, 0.0, 0.0, 0.0, 0.0, 0.0, 0.0, 1.598474833049801E9, 2020-08-26 15:47:13.049
15.0, -52.660709381103516, -62979.58984375, -24764.099609375, -37268.71484375, 61456.65625, 26337.259765625, -162766.78125, 187500.0, 0.010000000707805157, -0.01600000075995922, 1.0140000581741333, 192.0, 0.0, 0.0, 0.0, 0.0, 0.0, 0.0, 0.0, 0.0, 0.0, 1.598474833110014E9, 2020-08-26 15:47:13.110
16.0, -28.856101989746094, -75966.2421875, -40144.4453125, -51072.28125, 44309.08984375, 10655.6796875, -179852.875, 187500.0, 0.012000000104308128, -0.018000001087784767, 1.0180000066757202, 192.0, 0.0, 96.0, 255.0, 112.0, 31.0, 208.0, 0.0, 0.0, 0.0, 1.598474833110024E9, 2020-08-26 15:47:13.110
17.0, 4.716217994689941, -73868.8046875, -39358.29296875, -49810.32421875, 44161.12109375, 10442.533203125, -178696.0625, 187500.0, 0.012000000104308128, -0.018000001087784767, 1.0180000066757202, 192.0, 0.0, 0.0, 0.0, 0.0, 0.0, 0.0, 0.0, 0.0, 0.0, 1.598474833110028E9, 2020-08-26 15:47:13.110
18.0, -6.146729469299316, -55629.9140625, -20563.15625, -31999.62890625, 63936.4921875, 28743.60546875, -158186.375, 187500.0, 0.012000000104308128, -0.018000001087784767, 1.0180000066757202, 192.0, 0.0, 0.0, 0.0, 0.0, 0.0, 0.0, 0.0, 0.0, 0.0, 1.598474833110032E9, 2020-08-26 15:47:13.110
19.0, -8.091331481933594, -37240.0625, -179.6856689453125, -13160.6845703125, 85757.7421875, 48933.28515625, -136085.75, 187500.0, 0.012000000104308128, -0.018000001087784767, 1.0180000066757202, 192.0, 0.0, 0.0, 0.0, 0.0, 0.0, 0.0, 0.0, 0.0, 0.0, 1.598474833110036E9, 2020-08-26 15:47:13.110
20.0, -3.8444998264312744, -24180.09375, 15527.8232421875, 859.87158203125, 103221.828125, 64914.13671875, -118792.859375, 187500.0, 0.012000000104308128, -0.018000001087784767, 1.0180000066757202, 192.0, 0.0, 0.0, 0.0, 0.0, 0.0, 0.0, 0.0, 0.0, 0.0, 1.598474833110039E9, 2020-08-26 15:47:13.110
21.0, -27.872623443603516, -30268.26171875, 10348.052734375, -4607.275390625, 99228.953125, 60957.4296875, -123996.765625, 187500.0, 0.012000000104308128, -0.018000001087784767, 1.0180000066757202, 192.0, 0.0, 0.0, 0.0, 0.0, 0.0, 0.0, 0.0, 0.0, 0.0, 1.598474833110043E9, 2020-08-26 15:47:13.110
22.0, -51.587825775146484, -48658.203125, -8747.265625, -22640.283203125, 79082.8828125, 42348.171875, -144884.046875, 187500.0, 0.012000000104308128, -0.018000001087784767, 1.0180000066757202, 192.0, 0.0, 0.0, 0.0, 0.0, 0.0, 0.0, 0.0, 0.0, 0.0, 1.598474833110047E9, 2020-08-26 15:47:13.110
23.0, -55.342918395996094, -63505.41796875, -25332.953125, -37809.44921875, 60920.39453125, 25805.84765625, -163445.46875, 187500.0, 0.012000000104308128, -0.018000001087784767, 1.0180000066757202, 192.0, 0.0, 0.0, 0.0, 0.0, 0.0, 0.0, 0.0, 0.0, 0.0, 1.598474833110051E9, 2020-08-26 15:47:13.110
24.0, -34.82401657104492, -75529.421875, -39729.46484375, -50646.61328125, 44756.3046875, 11085.01171875, -179548.03125, 187500.0, 0.012000000104308128, -0.018000001087784767, 1.0180000066757202, 192.0, 0.0, 0.0, 0.0, 0.0, 0.0, 0.0, 0.0, 0.0, 0.0, 1.598474833110054E9, 2020-08-26 15:47:13.110
25.0, 8.650124549865723, -73081.171875, -38522.625, -48999.515625, 45037.35546875, 11279.1142578125, -177964.8125, 187500.0, 0.012000000104308128, -0.018000001087784767, 1.0180000066757202, 192.0, 0.0, 0.0, 0.0, 0.0, 0.0, 0.0, 0.0, 0.0, 0.0, 1.598474833110058E9, 2020-08-26 15:47:13.110
26.0, -1.8775464296340942, -56113.08984375, -21032.8125, -32474.333984375, 63503.3359375, 28303.4765625, -158748.703125, 187500.0, 0.00800000037997961, -0.014000000432133675, 1.0240000486373901, 192.0, 0.0, 64.0, 255.0, 144.0, 32.0, 0.0, 0.0, 0.0, 0.0, 1.598474833110062E9, 2020-08-26 15:47:13.110
27.0, -9.723008155822754, -37842.9765625, -824.7570190429688, -13787.2255859375, 85140.71875, 48320.1796875, -136817.171875, 187500.0, 0.00800000037997961, -0.014000000432133675, 1.0240000486373901, 192.0, 0.0, 0.0, 0.0, 0.0, 0.0, 0.0, 0.0, 0.0, 0.0, 1.598474833110066E9, 2020-08-26 15:47:13.110
28.0, -8.851290702819824, -23912.8125, 15766.6962890625, 1108.84765625, 103484.015625, 65160.47265625, -118638.359375, 187500.0, 0.00800000037997961, -0.014000000432133675, 1.0240000486373901, 192.0, 0.0, 0.0, 0.0, 0.0, 0.0, 0.0, 0.0, 0.0, 0.0, 1.598474833110071E9, 2020-08-26 15:47:13.110
29.0, -26.732685089111328, -29425.779296875, 11242.5693359375, -3737.45751953125, 100148.1484375, 61841.8671875, -123183.6328125, 187500.0, 0.00800000037997961, -0.014000000432133675, 1.0240000486373901, 192.0, 0.0, 0.0, 0.0, 0.0, 0.0, 0.0, 0.0, 0.0, 0.0, 1.598474833110075E9, 2020-08-26 15:47:13.110
30.0, -46.06694412231445, -49086.953125, -9139.3818359375, -23035.796875, 78717.9453125, 41977.46875, -145342.375, 187500.0, 0.00800000037997961, -0.014000000432133675, 1.0240000486373901, 192.0, 0.0, 0.0, 0.0, 0.0, 0.0, 0.0, 0.0, 0.0, 0.0, 1.598474833170305E9, 2020-08-26 15:47:13.170
31.0, -56.08052444458008, -64207.10546875, -26063.33984375, -38511.921875, 60210.03125, 25100.359375, -164241.328125, 187500.0, 0.00800000037997961, -0.014000000432133675, 1.0240000486373901, 192.0, 0.0, 0.0, 0.0, 0.0, 0.0, 0.0, 0.0, 0.0, 0.0, 1.598474833170313E9, 2020-08-26 15:47:13.170
32.0, -40.16608428955078, -75477.90625, -39716.72265625, -50612.6171875, 44783.4609375, 11101.1279296875, -179600.59375, 187500.0, 0.00800000037997961, -0.014000000432133675, 1.0240000486373901, 192.0, 0.0, 0.0, 0.0, 0.0, 0.0, 0.0, 0.0, 0.0, 0.0, 1.598474833170315E9, 2020-08-26 15:47:13.170
33.0, 7.309020042419434, -72197.140625, -37605.40234375, -48099.03125, 45971.09765625, 12173.2958984375, -177114.28125, 187500.0, 0.00800000037997961, -0.014000000432133675, 1.0240000486373901, 192.0, 0.0, 0.0, 0.0, 0.0, 0.0, 0.0, 0.0, 0.0, 0.0, 1.598474833170317E9, 2020-08-26 15:47:13.170
34.0, 4.895031929016113, -56277.2421875, -21153.19921875, -32602.7890625, 63404.7890625, 28182.798828125, -158925.40625, 187500.0, 0.00800000037997961, -0.014000000432133675, 1.0240000486373901, 192.0, 0.0, 0.0, 0.0, 0.0, 0.0, 0.0, 0.0, 0.0, 0.0, 1.598474833170319E9, 2020-08-26 15:47:13.170
35.0, -8.650124549865723, -38552.8671875, -1559.3470458984375, -14498.927734375, 84424.96875, 47600.18359375, -137601.109375, 187500.0, 0.00800000037997961, -0.014000000432133675, 1.0240000486373901, 192.0, 0.0, 0.0, 0.0, 0.0, 0.0, 0.0, 0.0, 0.0, 0.0, 1.598474833170321E9, 2020-08-26 15:47:13.170
36.0, -13.90278434753418, -24037.82421875, 15591.927734375, 959.5827026367188, 103324.8046875, 64988.09765625, -118863.578125, 187500.0, 0.012000000104308128, -0.012000000104308128, 1.0200001001358032, 192.0, 0.0, 96.0, 255.0, 160.0, 31.0, 224.0, 0.0, 0.0, 0.0, 1.598474833170323E9, 2020-08-26 15:47:13.170
37.0, -29.884281158447266, -28665.73046875, 12007.4013671875, -2979.19677734375, 100934.3984375, 62586.984375, -122468.3984375, 187500.0, 0.012000000104308128, -0.012000000104308128, 1.0200001001358032, 192.0, 0.0, 0.0, 0.0, 0.0, 0.0, 0.0, 0.0, 0.0, 0.0, 1.598474833170326E9, 2020-08-26 15:47:13.170
38.0, -38.243831634521484, -49097.484375, -9124.25, -23028.689453125, 78761.3046875, 41991.1484375, -145373.328125, 187500.0, 0.012000000104308128, -0.012000000104308128, 1.0200001001358032, 192.0, 0.0, 0.0, 0.0, 0.0, 0.0, 0.0, 0.0, 0.0, 0.0, 1.598474833170328E9, 2020-08-26 15:47:13.170
39.0, -53.95710754394531, -64944.2890625, -26834.51953125, -39259.875, 59459.52734375, 24347.306640625, -165062.3125, 187500.0, 0.012000000104308128, -0.012000000104308128, 1.0200001001358032, 192.0, 0.0, 0.0, 0.0, 0.0, 0.0, 0.0, 0.0, 0.0, 0.0, 1.59847483317033E9, 2020-08-26 15:47:13.170
40.0, -44.56937789916992, -75808.640625, -40115.0546875, -50974.44921875, 44398.54296875, 10714.9560546875, -180055.984375, 187500.0, 0.012000000104308128, -0.012000000104308128, 1.0200001001358032, 192.0, 0.0, 0.0, 0.0, 0.0, 0.0, 0.0, 0.0, 0.0, 0.0, 1.598474833170332E9, 2020-08-26 15:47:13.170
41.0, 2.168119192123413, -71509.6640625, -36935.09375, -47423.8515625, 46654.81640625, 12827.0625, -176530.671875, 187500.0, 0.012000000104308128, -0.012000000104308128, 1.0200001001358032, 192.0, 0.0, 0.0, 0.0, 0.0, 0.0, 0.0, 0.0, 0.0, 0.0, 1.598474833170335E9, 2020-08-26 15:47:13.170
42.0, 12.204051971435547, -55962.75390625, -20805.583984375, -32264.787109375, 63773.16796875, 28521.09375, -158664.65625, 187500.0, 0.012000000104308128, -0.012000000104308128, 1.0200001001358032, 192.0, 0.0, 0.0, 0.0, 0.0, 0.0, 0.0, 0.0, 0.0, 0.0, 1.598474833170337E9, 2020-08-26 15:47:13.170
43.0, -6.7055230140686035, -39264.546875, -2293.6689453125, -15202.515625, 83711.8203125, 46888.953125, -138405.46875, 187500.0, 0.012000000104308128, -0.012000000104308128, 1.0200001001358032, 192.0, 0.0, 0.0, 0.0, 0.0, 0.0, 0.0, 0.0, 0.0, 0.0, 1.598474833170339E9, 2020-08-26 15:47:13.170
44.0, -17.814340591430664, -24505.826171875, 15056.08984375, 473.611083984375, 102807.0703125, 64471.37109375, -119466.15625, 187500.0, 0.012000000104308128, -0.012000000104308128, 1.0200001001358032, 192.0, 0.0, 0.0, 0.0, 0.0, 0.0, 0.0, 0.0, 0.0, 0.0, 1.598474833170341E9, 2020-08-26 15:47:13.170
45.0, -35.74043655395508, -28123.767578125, 12518.138671875, -2446.644287109375, 101461.984375, 63091.59765625, -122029.4375, 187500.0, 0.012000000104308128, -0.012000000104308128, 1.0200001001358032, 192.0, 0.0, 0.0, 0.0, 0.0, 0.0, 0.0, 0.0, 0.0, 0.0, 1.598474833229883E9, 2020-08-26 15:47:13.229
46.0, -32.72295379638672, -48533.59375, -8528.7099609375, -22439.02734375, 79379.5546875, 42583.04296875, -144845.265625, 187500.0, 0.010000000707805157, -0.014000000432133675, 1.0099999904632568, 192.0, 0.0, 80.0, 255.0, 144.0, 31.0, 144.0, 0.0, 0.0, 0.0, 1.59847483322989E9, 2020-08-26 15:47:13.229
47.0, -51.20784378051758, -65574.359375, -27484.0625, -39883.8046875, 58830.4140625, 23729.794921875, -165769.890625, 187500.0, 0.010000000707805157, -0.014000000432133675, 1.0099999904632568, 192.0, 0.0, 0.0, 0.0, 0.0, 0.0, 0.0, 0.0, 0.0, 0.0, 1.598474833229892E9, 2020-08-26 15:47:13.229
48.0, -47.02806854248047, -76371.4609375, -40751.0078125, -51564.6015625, 43774.79296875, 10112.041015625, -180753.171875, 187500.0, 0.010000000707805157, -0.014000000432133675, 1.0099999904632568, 192.0, 0.0, 0.0, 0.0, 0.0, 0.0, 0.0, 0.0, 0.0, 0.0, 1.598474833229894E9, 2020-08-26 15:47:13.229
49.0, -3.3751132488250732, -71141.5546875, -36620.515625, -47079.1875, 46984.16796875, 13154.2919921875, -176285.78125, 187500.0, 0.010000000707805157, -0.014000000432133675, 1.0099999904632568, 192.0, 0.0, 0.0, 0.0, 0.0, 0.0, 0.0, 0.0, 0.0, 0.0, 1.598474833229896E9, 2020-08-26 15:47:13.229
50.0, 15.377999305725098, -55212.515625, -20037.265625, -31500.736328125, 64566.25390625, 29293.099609375, -157968.5625, 187500.0, 0.010000000707805157, -0.014000000432133675, 1.0099999904632568, 192.0, 0.0, 0.0, 0.0, 0.0, 0.0, 0.0, 0.0, 0.0, 0.0, 1.598474833229898E9, 2020-08-26 15:47:13.229
51.0, -2.1904709339141846, -39783.421875, -2824.27685546875, -15714.1025390625, 83202.9140625, 46394.64453125, -139003.953125, 187500.0, 0.010000000707805157, -0.014000000432133675, 1.0099999904632568, 192.0, 0.0, 0.0, 0.0, 0.0, 0.0, 0.0, 0.0, 0.0, 0.0, 1.598474833229901E9, 2020-08-26 15:47:13.229
52.0, -19.17779541015625, -25121.638671875, 14367.4775390625, -169.4485626220703, 102131.1328125, 63824.8671875, -120227.6171875, 187500.0, 0.010000000707805157, -0.014000000432133675, 1.0099999904632568, 192.0, 0.0, 0.0, 0.0, 0.0, 0.0, 0.0, 0.0, 0.0, 0.0, 1.598474833229903E9, 2020-08-26 15:47:13.229
53.0, -40.83663558959961, -27833.44140625, 12746.1044921875, -2179.63037109375, 101705.5078125, 63340.28125, -121877.796875, 187500.0, 0.010000000707805157, -0.014000000432133675, 1.0099999904632568, 192.0, 0.0, 0.0, 0.0, 0.0, 0.0, 0.0, 0.0, 0.0, 0.0, 1.598474833229905E9, 2020-08-26 15:47:13.229
54.0, -31.7841796875, -47619.09375, -7597.06689453125, -21506.37890625, 80336.8359375, 43514.44140625, -143989.3125, 187500.0, 0.010000000707805157, -0.014000000432133675, 1.0099999904632568, 192.0, 0.0, 0.0, 0.0, 0.0, 0.0, 0.0, 0.0, 0.0, 0.0, 1.598474833229907E9, 2020-08-26 15:47:13.229
55.0, -45.172874450683594, -65894.9765625, -27792.248046875, -40175.203125, 58553.76953125, 23448.9453125, -166141.21875, 187500.0, 0.010000000707805157, -0.014000000432133675, 1.0099999904632568, 192.0, 0.0, 0.0, 0.0, 0.0, 0.0, 0.0, 0.0, 0.0, 0.0, 1.598474833229909E9, 2020-08-26 15:47:13.229
56.0, -46.871604919433594, -77070.890625, -41498.44921875, -52265.28515625, 43057.6171875, 9403.37890625, -181545.4375, 187500.0, 0.010000000707805157, -0.014000000432133675, 1.0120000839233398, 192.0, 0.0, 80.0, 255.0, 144.0, 31.0, 160.0, 0.0, 0.0, 0.0, 1.598474833229912E9, 2020-08-26 15:47:13.229
57.0, -8.851290702819824, -71105.2578125, -36635.69140625, -47051.78515625, 46990.203125, 13155.2080078125, -176293.96875, 187500.0, 0.010000000707805157, -0.014000000432133675, 1.0120000839233398, 192.0, 0.0, 0.0, 0.0, 0.0, 0.0, 0.0, 0.0, 0.0, 0.0, 1.598474833229914E9, 2020-08-26 15:47:13.229
58.0, 13.545156478881836, -54314.87109375, -19113.78125, -30576.201171875, 65508.4453125, 30202.861328125, -157034.90625, 187500.0, 0.010000000707805157, -0.014000000432133675, 1.0120000839233398, 192.0, 0.0, 0.0, 0.0, 0.0, 0.0, 0.0, 0.0, 0.0, 0.0, 1.598474833229916E9, 2020-08-26 15:47:13.229
59.0, 4.69386625289917, -39901.28125, -2900.608154296875, -15788.2880859375, 83152.46875, 46326.2890625, -139066.9375, 187500.0, 0.010000000707805157, -0.014000000432133675, 1.0120000839233398, 192.0, 0.0, 0.0, 0.0, 0.0, 0.0, 0.0, 0.0, 0.0, 0.0, 1.598474833229919E9, 2020-08-26 15:47:13.229
60.0, -18.462539672851562, -25803.232421875, 13665.9228515625, -843.4877319335938, 101445.7578125, 63147.72265625, -120914.7734375, 187500.0, 0.010000000707805157, -0.014000000432133675, 1.0120000839233398, 192.0, 0.0, 0.0, 0.0, 0.0, 0.0, 0.0, 0.0, 0.0, 0.0, 1.598474833289453E9, 2020-08-26 15:47:13.289
61.0, -45.977535247802734, -27955.75, 12583.361328125, -2318.591064453125, 101548.0859375, 63186.79296875, -122036.046875, 187500.0, 0.010000000707805157, -0.014000000432133675, 1.0120000839233398, 192.0, 0.0, 0.0, 0.0, 0.0, 0.0, 0.0, 0.0, 0.0, 0.0, 1.598474833289457E9, 2020-08-26 15:47:13.289
62.0, -35.94160461425781, -46779.94140625, -6739.9892578125, -20659.828125, 81203.484375, 44355.5390625, -143134.90625, 187500.0, 0.010000000707805157, -0.014000000432133675, 1.0120000839233398, 192.0, 0.0, 0.0, 0.0, 0.0, 0.0, 0.0, 0.0, 0.0, 0.0, 1.598474833289459E9, 2020-08-26 15:47:13.289
63.0, -37.88620376586914, -65752.90625, -27598.234375, -39999.00390625, 58766.84765625, 23648.099609375, -165944.640625, 187500.0, 0.010000000707805157, -0.014000000432133675, 1.0120000839233398, 192.0, 0.0, 0.0, 0.0, 0.0, 0.0, 0.0, 0.0, 0.0, 0.0, 1.598474833289461E9, 2020-08-26 15:47:13.289
64.0, -45.552852630615234, -77747.765625, -42180.95703125, -52934.62890625, 42388.98828125, 8750.953125, -182217.53125, 187500.0, 0.010000000707805157, -0.014000000432133675, 1.0120000839233398, 192.0, 0.0, 0.0, 0.0, 0.0, 0.0, 0.0, 0.0, 0.0, 0.0, 1.598474833289463E9, 2020-08-26 15:47:13.289
65.0, -12.941659927368164, -71409.484375, -36981.71875, -47373.6484375, 46656.11328125, 12837.1875, -176613.21875, 187500.0, 0.010000000707805157, -0.014000000432133675, 1.0120000839233398, 192.0, 0.0, 0.0, 0.0, 0.0, 0.0, 0.0, 0.0, 0.0, 0.0, 1.598474833289465E9, 2020-08-26 15:47:13.289
66.0, 8.91834545135498, -53613.6953125, -18410.572265625, -29875.072265625, 66230.515625, 30912.08203125, -156304.09375, 187500.0, 0.018000001087784767, -0.014000000432133675, 1.0099999904632568, 192.0, 0.0, 144.0, 255.0, 144.0, 31.0, 144.0, 0.0, 0.0, 0.0, 1.598474833289467E9, 2020-08-26 15:47:13.289
67.0, 11.913479804992676, -39505.6796875, -2453.953125, -15361.34765625, 83622.5234375, 46784.4140625, -138595.765625, 187500.0, 0.018000001087784767, -0.014000000432133675, 1.0099999904632568, 192.0, 0.0, 0.0, 0.0, 0.0, 0.0, 0.0, 0.0, 0.0, 0.0, 1.598474833289468E9, 2020-08-26 15:47:13.289
68.0, -16.205013275146484, -26434.22265625, 13032.51953125, -1463.279296875, 100837.34375, 62549.9453125, -121522.609375, 187500.0, 0.018000001087784767, -0.014000000432133675, 1.0099999904632568, 192.0, 0.0, 0.0, 0.0, 0.0, 0.0, 0.0, 0.0, 0.0, 0.0, 1.59847483328947E9, 2020-08-26 15:47:13.289
69.0, -49.44205856323242, -28372.029296875, 12121.3505859375, -2747.386962890625, 101108.578125, 62754.30859375, -122473.6953125, 187500.0, 0.018000001087784767, -0.014000000432133675, 1.0099999904632568, 192.0, 0.0, 0.0, 0.0, 0.0, 0.0, 0.0, 0.0, 0.0, 0.0, 1.598474833289472E9, 2020-08-26 15:47:13.289
70.0, -41.1048583984375, -46219.984375, -6187.3427734375, -20098.083984375, 81776.625, 44910.8203125, -142563.796875, 187500.0, 0.018000001087784767, -0.014000000432133675, 1.0099999904632568, 192.0, 0.0, 0.0, 0.0, 0.0, 0.0, 0.0, 0.0, 0.0, 0.0, 1.598474833289474E9, 2020-08-26 15:47:13.289
71.0, -32.34297180175781, -65120.41796875, -26902.87109375, -39325.12109375, 59488.62890625, 24337.205078125, -165237.40625, 187500.0, 0.018000001087784767, -0.014000000432133675, 1.0099999904632568, 192.0, 0.0, 0.0, 0.0, 0.0, 0.0, 0.0, 0.0, 0.0, 0.0, 1.598474833289476E9, 2020-08-26 15:47:13.289
72.0, -42.17774200439453, -78329.875, -42746.27734375, -53492.328125, 41853.70703125, 8212.2763671875, -182763.171875, 187500.0, 0.018000001087784767, -0.014000000432133675, 1.0099999904632568, 192.0, 0.0, 0.0, 0.0, 0.0, 0.0, 0.0, 0.0, 0.0, 0.0, 1.598474833289477E9, 2020-08-26 15:47:13.289
73.0, -15.288592338562012, -71978.0, -37589.484375, -47953.18359375, 46074.67578125, 12259.171875, -177186.671875, 187500.0, 0.018000001087784767, -0.014000000432133675, 1.0099999904632568, 192.0, 0.0, 0.0, 0.0, 0.0, 0.0, 0.0, 0.0, 0.0, 0.0, 1.598474833289479E9, 2020-08-26 15:47:13.289
74.0, 3.039837121963501, -53237.09375, -18053.5703125, -29508.638671875, 66610.5, 31270.669921875, -155919.78125, 187500.0, 0.018000001087784767, -0.014000000432133675, 1.0099999904632568, 192.0, 0.0, 0.0, 0.0, 0.0, 0.0, 0.0, 0.0, 0.0, 0.0, 1.598474833289481E9, 2020-08-26 15:47:13.289
75.0, 14.774502754211426, -38698.01953125, -1588.0914306640625, -14524.2080078125, 84518.46875, 47630.29296875, -137711.90625, 187500.0, 0.018000001087784767, -0.014000000432133675, 1.0099999904632568, 192.0, 0.0, 0.0, 0.0, 0.0, 0.0, 0.0, 0.0, 0.0, 0.0, 1.598474833349835E9, 2020-08-26 15:47:13.349
76.0, -11.667610168457031, -26858.392578125, 12639.9560546875, -1861.7437744140625, 100478.484375, 62167.10546875, -121891.65625, 187500.0, 0.010000000707805157, -0.014000000432133675, 1.00600004196167, 192.0, 0.0, 80.0, 255.0, 144.0, 31.0, 112.0, 0.0, 0.0, 0.0, 1.598474833349841E9, 2020-08-26 15:47:13.349
77.0, -50.29142379760742, -28954.337890625, 11514.076171875, -3333.673095703125, 100530.296875, 62165.0703125, -123056.1796875, 187500.0, 0.010000000707805157, -0.014000000432133675, 1.00600004196167, 192.0, 0.0, 0.0, 0.0, 0.0, 0.0, 0.0, 0.0, 0.0, 0.0, 1.598474833349844E9, 2020-08-26 15:47:13.349
78.0, -46.69279098510742, -45966.046875, -5942.77001953125, -19847.341796875, 82045.3359375, 45148.7578125, -142306.3125, 187500.0, 0.010000000707805157, -0.014000000432133675, 1.00600004196167, 192.0, 0.0, 0.0, 0.0, 0.0, 0.0, 0.0, 0.0, 0.0, 0.0, 1.598474833349846E9, 2020-08-26 15:47:13.349
79.0, -32.11945724487305, -64206.45703125, -25919.841796875, -38375.88671875, 60498.703125, 25289.791015625, -164247.265625, 187500.0, 0.010000000707805157, -0.014000000432133675, 1.00600004196167, 192.0, 0.0, 0.0, 0.0, 0.0, 0.0, 0.0, 0.0, 0.0, 0.0, 1.598474833349849E9, 2020-08-26 15:47:13.349
80.0, -36.20982360839844, -78610.8828125, -42964.140625, -53727.64453125, 41666.19921875, 7994.90576171875, -182954.1875, 187500.0, 0.010000000707805157, -0.014000000432133675, 1.00600004196167, 192.0, 0.0, 0.0, 0.0, 0.0, 0.0, 0.0, 0.0, 0.0, 0.0, 1.598474833349851E9, 2020-08-26 15:47:13.349
81.0, -15.333295822143555, -72645.359375, -38254.83203125, -48607.30859375, 45431.91015625, 11606.947265625, -177782.890625, 187500.0, 0.010000000707805157, -0.014000000432133675, 1.00600004196167, 192.0, 0.0, 0.0, 0.0, 0.0, 0.0, 0.0, 0.0, 0.0, 0.0, 1.598474833349854E9, 2020-08-26 15:47:13.349
82.0, -2.2351744174957275, -53205.3515625, -18030.078125, -29475.2890625, 66652.09375, 31290.072265625, -155821.40625, 187500.0, 0.010000000707805157, -0.014000000432133675, 1.00600004196167, 192.0, 0.0, 0.0, 0.0, 0.0, 0.0, 0.0, 0.0, 0.0, 0.0, 1.598474833349856E9, 2020-08-26 15:47:13.349
83.0, 12.69579029083252, -37793.35546875, -624.2171630859375, -13584.5400390625, 85506.28125, 48568.68359375, -136680.828125, 187500.0, 0.010000000707805157, -0.014000000432133675, 1.00600004196167, 192.0, 0.0, 0.0, 0.0, 0.0, 0.0, 0.0, 0.0, 0.0, 0.0, 1.598474833349858E9, 2020-08-26 15:47:13.349
84.0, -4.671514511108398, -26922.25, 12652.115234375, -1870.2374267578125, 100516.6640625, 62177.27734375, -121814.7421875, 187500.0, 0.010000000707805157, -0.014000000432133675, 1.00600004196167, 192.0, 0.0, 0.0, 0.0, 0.0, 0.0, 0.0, 0.0, 0.0, 0.0, 1.598474833349861E9, 2020-08-26 15:47:13.349
85.0, -49.754981994628906, -29610.29296875, 10869.9208984375, -3971.457763671875, 99905.0078125, 61535.66796875, -123639.4296875, 187500.0, 0.010000000707805157, -0.014000000432133675, 1.00600004196167, 192.0, 0.0, 0.0, 0.0, 0.0, 0.0, 0.0, 0.0, 0.0, 0.0, 1.598474833349863E9, 2020-08-26 15:47:13.349
86.0, -51.498416900634766, -46070.87890625, -6064.11767578125, -19959.8828125, 81938.25, 45031.69921875, -142374.453125, 187500.0, 0.010000000707805157, -0.00800000037997961, 1.0080000162124634, 192.0, 0.0, 80.0, 255.0, 192.0, 31.0, 128.0, 0.0, 0.0, 0.0, 1.598474833349866E9, 2020-08-26 15:47:13.349
87.0, -35.8074951171875, -63351.76953125, -25024.1171875, -37505.28515625, 61413.046875, 26165.576171875, -163308.046875, 187500.0, 0.010000000707805157, -0.00800000037997961, 1.0080000162124634, 192.0, 0.0, 0.0, 0.0, 0.0, 0.0, 0.0, 0.0, 0.0, 0.0, 1.598474833349868E9, 2020-08-26 15:47:13.349
88.0, -28.654935836791992, -78407.65625, -42681.68359375, -53480.76953125, 41972.1953125, 8266.501953125, -182627.296875, 187500.0, 0.010000000707805157, -0.00800000037997961, 1.0080000162124634, 192.0, 0.0, 0.0, 0.0, 0.0, 0.0, 0.0, 0.0, 0.0, 0.0, 1.598474833349871E9, 2020-08-26 15:47:13.349
89.0, -13.545156478881836, -73283.6796875, -38879.359375, -49229.71484375, 44825.796875, 10994.2412109375, -178318.328125, 187500.0, 0.010000000707805157, -0.00800000037997961, 1.0080000162124634, 192.0, 0.0, 0.0, 0.0, 0.0, 0.0, 0.0, 0.0, 0.0, 0.0, 1.598474833349873E9, 2020-08-26 15:47:13.349
90.0, -6.169081211090088, -53492.99609375, -18343.2265625, -29772.9921875, 66349.6328125, 30985.26171875, -156033.984375, 187500.0, 0.010000000707805157, -0.00800000037997961, 1.0080000162124634, 192.0, 0.0, 0.0, 0.0, 0.0, 0.0, 0.0, 0.0, 0.0, 0.0, 1.598474833410118E9, 2020-08-26 15:47:13.410
91.0, 7.577240943908691, -37070.30078125, 119.7159423828125, -12857.818359375, 86257.9296875, 49296.99609375, -135849.1875, 187500.0, 0.010000000707805157, -0.00800000037997961, 1.0080000162124634, 192.0, 0.0, 0.0, 0.0, 0.0, 0.0, 0.0, 0.0, 0.0, 0.0, 1.598474833410125E9, 2020-08-26 15:47:13.410
92.0, 2.3245813846588135, -26476.84765625, 13168.6640625, -1393.6982421875, 101043.9375, 62680.97265625, -121214.2421875, 187500.0, 0.010000000707805157, -0.00800000037997961, 1.0080000162124634, 192.0, 0.0, 0.0, 0.0, 0.0, 0.0, 0.0, 0.0, 0.0, 0.0, 1.598474833410128E9, 2020-08-26 15:47:13.410
93.0, -47.20688247680664, -30223.37890625, 10272.3701171875, -4579.42529296875, 99313.515625, 60952.1328125, -124151.8671875, 187500.0, 0.010000000707805157, -0.00800000037997961, 1.0080000162124634, 192.0, 0.0, 0.0, 0.0, 0.0, 0.0, 0.0, 0.0, 0.0, 0.0, 1.598474833410131E9, 2020-08-26 15:47:13.410
94.0, -54.73942184448242, -46483.73828125, -6510.302734375, -20399.654296875, 81496.265625, 44599.171875, -142738.734375, 187500.0, 0.010000000707805157, -0.00800000037997961, 1.0080000162124634, 192.0, 0.0, 0.0, 0.0, 0.0, 0.0, 0.0, 0.0, 0.0, 0.0, 1.598474833410133E9, 2020-08-26 15:47:13.410
95.0, -41.39542770385742, -62788.4609375, -24459.04296875, -36957.73828125, 61983.484375, 26721.486328125, -162667.40625, 187500.0, 0.010000000707805157, -0.00800000037997961, 1.0080000162124634, 192.0, 0.0, 0.0, 0.0, 0.0, 0.0, 0.0, 0.0, 0.0, 0.0, 1.598474833410135E9, 2020-08-26 15:47:13.410
96.0, -23.42462730407715, -77720.96875, -41915.265625, -52763.546875, 42746.8828125, 9015.576171875, -181786.484375, 187500.0, 0.010000000707805157, -0.00800000037997961, 1.0080000162124634, 192.0, 0.0, 0.0, 0.0, 0.0, 0.0, 0.0, 0.0, 0.0, 0.0, 1.598474833410138E9, 2020-08-26 15:47:13.410
97.0, -10.102988243103027, -73835.2734375, -39386.34375, -49756.41015625, 44329.85546875, 10503.0615234375, -178723.890625, 187500.0, 0.010000000707805157, -0.012000000104308128, 1.0099999904632568, 192.0, 0.0, 80.0, 255.0, 160.0, 31.0, 144.0, 0.0, 0.0, 0.0, 1.59847483341014E9, 2020-08-26 15:47:13.410
98.0, -8.650124549865723, -54055.5703125, -18917.173828125, -30338.849609375, 65787.9765625, 30434.06640625, -156498.328125, 187500.0, 0.010000000707805157, -0.012000000104308128, 1.0099999904632568, 192.0, 0.0, 0.0, 0.0, 0.0, 0.0, 0.0, 0.0, 0.0, 0.0, 1.598474833410143E9, 2020-08-26 15:47:13.410
99.0, 2.078712224960327, -36706.078125, 488.0279846191406, -12492.9482421875, 86642.421875, 49667.4296875, -135378.609375, 187500.0, 0.010000000707805157, -0.012000000104308128, 1.0099999904632568, 192.0, 0.0, 0.0, 0.0, 0.0, 0.0, 0.0, 0.0, 0.0, 0.0, 1.598474833410145E9, 2020-08-26 15:47:13.410
100.0, 5.2303080558776855, -25680.298828125, 14039.1748046875, -558.32421875, 101944.0234375, 63544.1953125, -120243.4609375, 187500.0, 0.010000000707805157, -0.012000000104308128, 1.0099999904632568, 192.0, 0.0, 0.0, 0.0, 0.0, 0.0, 0.0, 0.0, 0.0, 0.0, 1.598474833410147E9, 2020-08-26 15:47:13.410
101.0, -42.37890625, -30688.720703125, 9852.447265625, -5008.82470703125, 98931.1640625, 60560.5078125, -124471.7421875, 187500.0, 0.010000000707805157, -0.012000000104308128, 1.0099999904632568, 192.0, 0.0, 0.0, 0.0, 0.0, 0.0, 0.0, 0.0, 0.0, 0.0, 1.59847483341015E9, 2020-08-26 15:47:13.410
102.0, -55.63349151611328, -47133.01171875, -7172.80859375, -21041.39453125, 80862.1953125, 43971.7578125, -143307.265625, 187500.0, 0.010000000707805157, -0.012000000104308128, 1.0099999904632568, 192.0, 0.0, 0.0, 0.0, 0.0, 0.0, 0.0, 0.0, 0.0, 0.0, 1.598474833410153E9, 2020-08-26 15:47:13.410
103.0, -47.318641662597656, -62611.61328125, -24295.31640625, -36779.703125, 62175.30859375, 26902.08984375, -162416.90625, 187500.0, 0.010000000707805157, -0.012000000104308128, 1.0099999904632568, 192.0, 0.0, 0.0, 0.0, 0.0, 0.0, 0.0, 0.0, 0.0, 0.0, 1.598474833410155E9, 2020-08-26 15:47:13.410
104.0, -23.894014358520508, -76823.546875, -40963.63671875, -51833.24609375, 43738.921875, 9966.0615234375, -180768.203125, 187500.0, 0.010000000707805157, -0.012000000104308128, 1.0099999904632568, 192.0, 0.0, 0.0, 0.0, 0.0, 0.0, 0.0, 0.0, 0.0, 0.0, 1.598474833410159E9, 2020-08-26 15:47:13.410
105.0, -4.112720966339111, -74104.6796875, -39612.0078125, -49987.640625, 44150.7734375, 10304.8017578125, -178931.65625, 187500.0, 0.010000000707805157, -0.012000000104308128, 1.0099999904632568, 192.0, 0.0, 0.0, 0.0, 0.0, 0.0, 0.0, 0.0, 0.0, 0.0, 1.598474833471839E9, 2020-08-26 15:47:13.471
106.0, -8.247793197631836, -54731.93359375, -19616.806640625, -31018.654296875, 65126.765625, 29771.359375, -157197.046875, 187500.0, 0.010000000707805157, -0.012000000104308128, 1.0099999904632568, 192.0, 0.0, 0.0, 0.0, 0.0, 0.0, 0.0, 0.0, 0.0, 0.0, 1.598474833471847E9, 2020-08-26 15:47:13.471
107.0, -3.3974649906158447, -36702.7265625, 451.125244140625, -12515.814453125, 86638.015625, 49646.640625, -135423.046875, 187500.0, 0.010000000707805157, -0.014000000432133675, 1.00600004196167, 192.0, 0.0, 80.0, 255.0, 144.0, 31.0, 112.0, 0.0, 0.0, 0.0, 1.598474833471851E9, 2020-08-26 15:47:13.471
108.0, 2.9727818965911865, -24834.84375, 14912.94921875, 296.2947082519531, 102852.84375, 64409.85546875, -119378.359375, 187500.0, 0.010000000707805157, -0.014000000432133675, 1.00600004196167, 192.0, 0.0, 0.0, 0.0, 0.0, 0.0, 0.0, 0.0, 0.0, 0.0, 1.598474833471854E9, 2020-08-26 15:47:13.471
109.0, -35.695735931396484, -30771.17578125, 9812.52734375, -5059.6748046875, 98924.5703125, 60531.44921875, -124512.734375, 187500.0, 0.010000000707805157, -0.014000000432133675, 1.00600004196167, 192.0, 0.0, 0.0, 0.0, 0.0, 0.0, 0.0, 0.0, 0.0, 0.0, 1.598474833471858E9, 2020-08-26 15:47:13.471
110.0, -54.828826904296875, -47803.875, -7863.96923828125, -21712.08203125, 80197.65625, 43304.69140625, -143999.71875, 187500.0, 0.010000000707805157, -0.014000000432133675, 1.00600004196167, 192.0, 0.0, 0.0, 0.0, 0.0, 0.0, 0.0, 0.0, 0.0, 0.0, 1.598474833471861E9, 2020-08-26 15:47:13.471
111.0, -51.90074920654297, -62785.625, -24516.443359375, -36975.953125, 61973.18359375, 26694.8671875, -162640.390625, 187500.0, 0.010000000707805157, -0.014000000432133675, 1.00600004196167, 192.0, 0.0, 0.0, 0.0, 0.0, 0.0, 0.0, 0.0, 0.0, 0.0, 1.598474833471865E9, 2020-08-26 15:47:13.471
112.0, -28.29730796813965, -76010.390625, -40142.078125, -51020.46875, 44581.08984375, 10779.7763671875, -179971.71875, 187500.0, 0.010000000707805157, -0.014000000432133675, 1.00600004196167, 192.0, 0.0, 0.0, 0.0, 0.0, 0.0, 0.0, 0.0, 0.0, 0.0, 1.598474833471868E9, 2020-08-26 15:47:13.471
113.0, 3.509223699569702, -73892.984375, -39346.3125, -49746.62109375, 44443.3359375, 10578.9912109375, -178788.828125, 187500.0, 0.010000000707805157, -0.014000000432133675, 1.00600004196167, 192.0, 0.0, 0.0, 0.0, 0.0, 0.0, 0.0, 0.0, 0.0, 0.0, 1.598474833471872E9, 2020-08-26 15:47:13.471
114.0, -6.34789514541626, -55401.45703125, -20289.482421875, -31685.318359375, 64477.6484375, 29132.48046875, -158016.703125, 187500.0, 0.010000000707805157, -0.014000000432133675, 1.00600004196167, 192.0, 0.0, 0.0, 0.0, 0.0, 0.0, 0.0, 0.0, 0.0, 0.0, 1.598474833471875E9, 2020-08-26 15:47:13.471
115.0, -7.286668300628662, -37037.109375, 77.0911636352539, -12870.513671875, 86281.125, 49298.73828125, -135939.59375, 187500.0, 0.010000000707805157, -0.014000000432133675, 1.00600004196167, 192.0, 0.0, 0.0, 0.0, 0.0, 0.0, 0.0, 0.0, 0.0, 0.0, 1.598474833471879E9, 2020-08-26 15:47:13.471
116.0, -2.6598575115203857, -24182.462890625, 15570.537109375, 941.0978393554688, 103529.1171875, 65065.65625, -118864.765625, 187500.0, 0.010000000707805157, -0.014000000432133675, 1.00600004196167, 192.0, 0.0, 0.0, 0.0, 0.0, 0.0, 0.0, 0.0, 0.0, 0.0, 1.598474833471883E9, 2020-08-26 15:47:13.471
117.0, -29.258432388305664, -30324.052734375, 10324.650390625, -4587.1142578125, 99462.8671875, 61044.9375, -124144.46875, 187500.0, 0.012000000104308128, -0.014000000432133675, 1.00600004196167, 192.0, 0.0, 96.0, 255.0, 144.0, 31.0, 112.0, 0.0, 0.0, 0.0, 1.598474833471886E9, 2020-08-26 15:47:13.471
118.0, -52.481895446777344, -48429.03125, -8474.373046875, -22331.962890625, 79611.4140625, 42722.5859375, -144748.9375, 187500.0, 0.012000000104308128, -0.014000000432133675, 1.00600004196167, 192.0, 0.0, 0.0, 0.0, 0.0, 0.0, 0.0, 0.0, 0.0, 0.0, 1.59847483347189E9, 2020-08-26 15:47:13.471
119.0, -55.18645477294922, -63263.4140625, -25025.1015625, -37475.08984375, 61480.32421875, 26206.837890625, -163285.953125, 187500.0, 0.012000000104308128, -0.014000000432133675, 1.00600004196167, 192.0, 0.0, 0.0, 0.0, 0.0, 0.0, 0.0, 0.0, 0.0, 0.0, 1.598474833471894E9, 2020-08-26 15:47:13.471
120.0, -33.4605598449707, -75520.1484375, -39646.98828125, -50540.0625, 45088.1171875, 11261.0771484375, -179621.546875, 187500.0, 0.012000000104308128, -0.014000000432133675, 1.00600004196167, 192.0, 0.0, 0.0, 0.0, 0.0, 0.0, 0.0, 0.0, 0.0, 0.0, 1.598474833530654E9, 2020-08-26 15:47:13.530
121.0, 7.979572296142578, -73220.21875, -38596.6796875, -49043.59375, 45208.546875, 11297.666015625, -178200.21875, 187500.0, 0.012000000104308128, -0.014000000432133675, 1.00600004196167, 192.0, 0.0, 0.0, 0.0, 0.0, 0.0, 0.0, 0.0, 0.0, 0.0, 1.598474833530659E9, 2020-08-26 15:47:13.530
122.0, -3.039837121963501, -55975.3359375, -20826.125, -32236.19921875, 63956.02734375, 28593.177734375, -158704.734375, 187500.0, 0.012000000104308128, -0.014000000432133675, 1.00600004196167, 192.0, 0.0, 0.0, 0.0, 0.0, 0.0, 0.0, 0.0, 0.0, 0.0, 1.598474833530661E9, 2020-08-26 15:47:13.530
123.0, -9.186566352844238, -37651.40234375, -562.5039672851562, -13492.9658203125, 85652.890625, 48664.6171875, -136719.484375, 187500.0, 0.012000000104308128, -0.014000000432133675, 1.00600004196167, 192.0, 0.0, 0.0, 0.0, 0.0, 0.0, 0.0, 0.0, 0.0, 0.0, 1.598474833530663E9, 2020-08-26 15:47:13.530
124.0, -7.823110103607178, -23864.30859375, 15870.900390625, 1246.824951171875, 103837.7734375, 65351.515625, -118702.6484375, 187500.0, 0.012000000104308128, -0.014000000432133675, 1.00600004196167, 192.0, 0.0, 0.0, 0.0, 0.0, 0.0, 0.0, 0.0, 0.0, 0.0, 1.598474833530664E9, 2020-08-26 15:47:13.530
125.0, -26.844444274902344, -29511.25390625, 11188.6123046875, -3752.23193359375, 100340.9140625, 61877.6953125, -123412.5625, 187500.0, 0.012000000104308128, -0.014000000432133675, 1.00600004196167, 192.0, 0.0, 0.0, 0.0, 0.0, 0.0, 0.0, 0.0, 0.0, 0.0, 1.598474833530666E9, 2020-08-26 15:47:13.530
126.0, -47.47510528564453, -48911.24609375, -8931.845703125, -22795.224609375, 79168.0234375, 42266.65625, -145320.171875, 187500.0, 0.012000000104308128, -0.014000000432133675, 1.00600004196167, 192.0, 0.0, 0.0, 0.0, 0.0, 0.0, 0.0, 0.0, 0.0, 0.0, 1.598474833530668E9, 2020-08-26 15:47:13.530
127.0, -56.147579193115234, -63949.0546875, -25750.662109375, -38178.87890625, 60760.95703125, 25492.857421875, -164121.28125, 187500.0, 0.010000000707805157, -0.012000000104308128, 1.0080000162124634, 192.0, 0.0, 80.0, 255.0, 160.0, 31.0, 128.0, 0.0, 0.0, 0.0, 1.59847483353067E9, 2020-08-26 15:47:13.530
128.0, -38.82497787475586, -75378.375, -39548.21484375, -50425.35546875, 45189.68359375, 11352.9423828125, -179634.421875, 187500.0, 0.010000000707805157, -0.012000000104308128, 1.0080000162124634, 192.0, 0.0, 0.0, 0.0, 0.0, 0.0, 0.0, 0.0, 0.0, 0.0, 1.598474833530672E9, 2020-08-26 15:47:13.530
129.0, 7.934868812561035, -72326.84375, -37676.90234375, -48143.46484375, 46139.07421875, 12193.0546875, -177396.046875, 187500.0, 0.010000000707805157, -0.012000000104308128, 1.0080000162124634, 192.0, 0.0, 0.0, 0.0, 0.0, 0.0, 0.0, 0.0, 0.0, 0.0, 1.598474833530674E9, 2020-08-26 15:47:13.530
130.0, 3.553927183151245, -56225.25390625, -21049.62109375, -32470.958984375, 63747.8671875, 28375.8515625, -159037.375, 187500.0, 0.010000000707805157, -0.012000000104308128, 1.0080000162124634, 192.0, 0.0, 0.0, 0.0, 0.0, 0.0, 0.0, 0.0, 0.0, 0.0, 1.598474833530675E9, 2020-08-26 15:47:13.530
131.0, -9.007752418518066, -38348.0390625, -1292.1766357421875, -14207.259765625, 84929.3359375, 47955.46484375, -137551.5625, 187500.0, 0.010000000707805157, -0.012000000104308128, 1.0080000162124634, 192.0, 0.0, 0.0, 0.0, 0.0, 0.0, 0.0, 0.0, 0.0, 0.0, 1.598474833530678E9, 2020-08-26 15:47:13.530
132.0, -13.098121643066406, -23919.673828125, 15769.021484375, 1163.5423583984375, 103737.6796875, 65253.078125, -118902.578125, 187500.0, 0.010000000707805157, -0.012000000104308128, 1.0080000162124634, 192.0, 0.0, 0.0, 0.0, 0.0, 0.0, 0.0, 0.0, 0.0, 0.0, 1.598474833530679E9, 2020-08-26 15:47:13.530
